Input File: 100PB.78D
Measure Group: FFT
Measurement: FFT 2
Num of extracted Points: 801
Start Freq: -0 Hz
Span: 800 Hz
FFT Lines:  400 
Window: Uniform
Averaging Mode: RMS
Averaging Type: Linear / Fix Len
Number of Avg:   20
Overload reject: Off

    X[Hz]      Vrms/Hz^(1/... 
  0.000000e+00   7.907961e-04 
  1.000000e+00   3.849182e-05 
  2.000000e+00   2.908260e-05 
  3.000000e+00   1.747827e-05 
  4.000000e+00   1.524960e-05 
  5.000000e+00   1.305208e-05 
  6.000000e+00   7.548007e-06 
  7.000000e+00   8.204298e-06 
  8.000000e+00   6.704119e-06 
  9.000000e+00   7.417118e-06 
  1.000000e+01   5.156698e-06 
  1.100000e+01   4.876261e-06 
  1.200000e+01   5.835016e-06 
  1.300000e+01   3.886104e-06 
  1.400000e+01   6.502751e-06 
  1.500000e+01   5.436551e-06 
  1.600000e+01   5.038125e-06 
  1.700000e+01   5.510580e-06 
  1.800000e+01   5.770327e-06 
  1.900000e+01   6.274340e-06 
  2.000000e+01   4.519633e-06 
  2.100000e+01   4.481477e-06 
  2.200000e+01   5.131029e-06 
  2.300000e+01   3.864796e-06 
  2.400000e+01   4.549103e-06 
  2.500000e+01   4.617450e-06 
  2.600000e+01   4.314702e-06 
  2.700000e+01   3.600514e-06 
  2.800000e+01   3.547478e-06 
  2.900000e+01   4.403592e-06 
  3.000000e+01   3.927437e-06 
  3.100000e+01   3.958512e-06 
  3.200000e+01   4.723527e-06 
  3.300000e+01   4.379050e-06 
  3.400000e+01   4.401951e-06 
  3.500000e+01   4.101694e-06 
  3.600000e+01   4.430157e-06 
  3.700000e+01   4.446973e-06 
  3.800000e+01   3.597876e-06 
  3.900000e+01   4.539559e-06 
  4.000000e+01   4.022776e-06 
  4.100000e+01   3.459270e-06 
  4.200000e+01   3.882130e-06 
  4.300000e+01   3.953635e-06 
  4.400000e+01   3.175995e-06 
  4.500000e+01   4.079431e-06 
  4.600000e+01   3.974669e-06 
  4.700000e+01   3.596454e-06 
  4.800000e+01   3.254529e-06 
  4.900000e+01   3.379455e-06 
  5.000000e+01   3.341698e-06 
  5.100000e+01   3.684753e-06 
  5.200000e+01   3.975366e-06 
  5.300000e+01   3.423126e-06 
  5.400000e+01   2.832760e-06 
  5.500000e+01   3.487913e-06 
  5.600000e+01   3.508800e-06 
  5.700000e+01   3.129019e-06 
  5.800000e+01   3.467398e-06 
  5.900000e+01   3.035357e-06 
  6.000000e+01   7.177871e-06 
  6.100000e+01   2.520293e-06 
  6.200000e+01   3.239295e-06 
  6.300000e+01   2.966189e-06 
  6.400000e+01   3.519864e-06 
  6.500000e+01   3.130615e-06 
  6.600000e+01   3.502105e-06 
  6.700000e+01   3.887424e-06 
  6.800000e+01   2.993674e-06 
  6.900000e+01   3.331118e-06 
  7.000000e+01   2.911278e-06 
  7.100000e+01   2.914572e-06 
  7.200000e+01   2.933973e-06 
  7.300000e+01   3.443839e-06 
  7.400000e+01   3.225090e-06 
  7.500000e+01   2.858098e-06 
  7.600000e+01   2.388747e-06 
  7.700000e+01   2.382784e-06 
  7.800000e+01   2.392344e-06 
  7.900000e+01   3.038797e-06 
  8.000000e+01   2.244512e-06 
  8.100000e+01   2.614797e-06 
  8.200000e+01   2.990892e-06 
  8.300000e+01   2.566351e-06 
  8.400000e+01   2.373387e-06 
  8.500000e+01   2.931386e-06 
  8.600000e+01   2.404808e-06 
  8.700000e+01   1.888193e-06 
  8.800000e+01   2.411374e-06 
  8.900000e+01   2.761580e-06 
  9.000000e+01   2.614022e-06 
  9.100000e+01   2.233349e-06 
  9.200000e+01   2.956314e-06 
  9.300000e+01   2.144076e-06 
  9.400000e+01   2.248917e-06 
  9.500000e+01   2.382912e-06 
  9.600000e+01   2.608445e-06 
  9.700000e+01   2.501733e-06 
  9.800000e+01   2.227919e-06 
  9.900000e+01   2.159556e-06 
  1.000000e+02   2.392819e-06 
  1.010000e+02   2.469878e-06 
  1.020000e+02   2.289808e-06 
  1.030000e+02   2.047826e-06 
  1.040000e+02   2.840478e-06 
  1.050000e+02   2.259932e-06 
  1.060000e+02   2.578406e-06 
  1.070000e+02   1.971263e-06 
  1.080000e+02   2.274085e-06 
  1.090000e+02   2.222847e-06 
  1.100000e+02   2.004753e-06 
  1.110000e+02   2.106808e-06 
  1.120000e+02   2.011180e-06 
  1.130000e+02   1.938564e-06 
  1.140000e+02   2.114115e-06 
  1.150000e+02   2.147411e-06 
  1.160000e+02   1.845361e-06 
  1.170000e+02   1.978150e-06 
  1.180000e+02   2.070606e-06 
  1.190000e+02   1.981495e-06 
  1.200000e+02   1.793020e-06 
  1.210000e+02   1.903384e-06 
  1.220000e+02   1.866220e-06 
  1.230000e+02   1.944704e-06 
  1.240000e+02   2.229979e-06 
  1.250000e+02   2.073443e-06 
  1.260000e+02   1.937872e-06 
  1.270000e+02   2.059094e-06 
  1.280000e+02   2.013521e-06 
  1.290000e+02   1.927249e-06 
  1.300000e+02   1.771021e-06 
  1.310000e+02   1.686891e-06 
  1.320000e+02   1.896851e-06 
  1.330000e+02   1.970103e-06 
  1.340000e+02   1.681290e-06 
  1.350000e+02   1.601449e-06 
  1.360000e+02   1.654960e-06 
  1.370000e+02   1.914489e-06 
  1.380000e+02   2.009717e-06 
  1.390000e+02   1.921629e-06 
  1.400000e+02   1.610682e-06 
  1.410000e+02   1.518937e-06 
  1.420000e+02   1.556655e-06 
  1.430000e+02   1.780499e-06 
  1.440000e+02   1.926765e-06 
  1.450000e+02   1.505469e-06 
  1.460000e+02   1.884974e-06 
  1.470000e+02   1.842597e-06 
  1.480000e+02   1.721059e-06 
  1.490000e+02   1.985056e-06 
  1.500000e+02   1.803559e-06 
  1.510000e+02   1.767666e-06 
  1.520000e+02   1.489283e-06 
  1.530000e+02   1.672440e-06 
  1.540000e+02   1.421079e-06 
  1.550000e+02   1.127062e-06 
  1.560000e+02   1.658646e-06 
  1.570000e+02   1.990213e-06 
  1.580000e+02   1.616882e-06 
  1.590000e+02   1.548402e-06 
  1.600000e+02   1.302734e-06 
  1.610000e+02   1.588128e-06 
  1.620000e+02   1.512235e-06 
  1.630000e+02   1.888142e-06 
  1.640000e+02   1.556167e-06 
  1.650000e+02   1.642135e-06 
  1.660000e+02   1.565041e-06 
  1.670000e+02   1.531103e-06 
  1.680000e+02   1.568519e-06 
  1.690000e+02   1.388280e-06 
  1.700000e+02   1.709056e-06 
  1.710000e+02   1.479569e-06 
  1.720000e+02   1.603076e-06 
  1.730000e+02   1.456462e-06 
  1.740000e+02   1.438302e-06 
  1.750000e+02   1.445372e-06 
  1.760000e+02   1.419092e-06 
  1.770000e+02   1.509598e-06 
  1.780000e+02   1.365706e-06 
  1.790000e+02   1.237955e-06 
  1.800000e+02   1.749414e-06 
  1.810000e+02   1.458646e-06 
  1.820000e+02   1.342199e-06 
  1.830000e+02   1.830404e-06 
  1.840000e+02   1.155190e-06 
  1.850000e+02   1.374421e-06 
  1.860000e+02   1.082305e-06 
  1.870000e+02   1.276155e-06 
  1.880000e+02   1.328900e-06 
  1.890000e+02   1.395168e-06 
  1.900000e+02   1.320956e-06 
  1.910000e+02   1.404259e-06 
  1.920000e+02   1.326119e-06 
  1.930000e+02   1.248933e-06 
  1.940000e+02   1.202803e-06 
  1.950000e+02   1.333026e-06 
  1.960000e+02   1.379167e-06 
  1.970000e+02   1.378296e-06 
  1.980000e+02   1.410338e-06 
  1.990000e+02   1.430105e-06 
  2.000000e+02   1.348262e-06 
  2.010000e+02   1.016529e-06 
  2.020000e+02   1.236330e-06 
  2.030000e+02   1.158866e-06 
  2.040000e+02   1.210869e-06 
  2.050000e+02   1.242845e-06 
  2.060000e+02   1.375244e-06 
  2.070000e+02   1.319001e-06 
  2.080000e+02   9.362063e-07 
  2.090000e+02   1.068508e-06 
  2.100000e+02   1.094980e-06 
  2.110000e+02   1.099672e-06 
  2.120000e+02   1.089363e-06 
  2.130000e+02   9.775350e-07 
  2.140000e+02   1.145278e-06 
  2.150000e+02   1.136513e-06 
  2.160000e+02   1.286134e-06 
  2.170000e+02   1.234713e-06 
  2.180000e+02   1.348838e-06 
  2.190000e+02   1.422229e-06 
  2.200000e+02   1.031869e-06 
  2.210000e+02   1.132614e-06 
  2.220000e+02   1.173417e-06 
  2.230000e+02   1.062213e-06 
  2.240000e+02   1.001183e-06 
  2.250000e+02   1.233217e-06 
  2.260000e+02   1.176018e-06 
  2.270000e+02   9.270852e-07 
  2.280000e+02   8.937311e-07 
  2.290000e+02   1.195871e-06 
  2.300000e+02   9.996667e-07 
  2.310000e+02   1.199358e-06 
  2.320000e+02   1.124975e-06 
  2.330000e+02   1.095214e-06 
  2.340000e+02   1.109057e-06 
  2.350000e+02   1.215631e-06 
  2.360000e+02   1.075406e-06 
  2.370000e+02   1.165351e-06 
  2.380000e+02   1.144519e-06 
  2.390000e+02   1.048931e-06 
  2.400000e+02   1.092512e-06 
  2.410000e+02   1.023116e-06 
  2.420000e+02   8.571142e-07 
  2.430000e+02   7.570848e-07 
  2.440000e+02   1.009268e-06 
  2.450000e+02   8.572994e-07 
  2.460000e+02   9.207213e-07 
  2.470000e+02   1.029669e-06 
  2.480000e+02   1.015605e-06 
  2.490000e+02   9.321711e-07 
  2.500000e+02   9.785333e-07 
  2.510000e+02   9.225153e-07 
  2.520000e+02   1.066334e-06 
  2.530000e+02   9.618939e-07 
  2.540000e+02   9.950330e-07 
  2.550000e+02   9.115668e-07 
  2.560000e+02   1.098256e-06 
  2.570000e+02   1.118355e-06 
  2.580000e+02   9.560989e-07 
  2.590000e+02   8.819649e-07 
  2.600000e+02   1.096655e-06 
  2.610000e+02   9.523535e-07 
  2.620000e+02   1.020381e-06 
  2.630000e+02   1.121406e-06 
  2.640000e+02   9.807820e-07 
  2.650000e+02   1.131719e-06 
  2.660000e+02   9.997025e-07 
  2.670000e+02   8.279841e-07 
  2.680000e+02   8.182788e-07 
  2.690000e+02   8.857774e-07 
  2.700000e+02   8.379273e-07 
  2.710000e+02   1.060413e-06 
  2.720000e+02   9.971033e-07 
  2.730000e+02   9.224183e-07 
  2.740000e+02   9.132920e-07 
  2.750000e+02   9.197184e-07 
  2.760000e+02   1.014551e-06 
  2.770000e+02   8.709994e-07 
  2.780000e+02   1.161826e-06 
  2.790000e+02   9.225930e-07 
  2.800000e+02   8.739269e-07 
  2.810000e+02   6.366498e-07 
  2.820000e+02   7.236551e-07 
  2.830000e+02   7.385721e-07 
  2.840000e+02   7.946802e-07 
  2.850000e+02   7.843077e-07 
  2.860000e+02   7.205963e-07 
  2.870000e+02   9.386272e-07 
  2.880000e+02   9.848775e-07 
  2.890000e+02   7.993628e-07 
  2.900000e+02   6.700664e-07 
  2.910000e+02   7.888806e-07 
  2.920000e+02   7.813014e-07 
  2.930000e+02   7.670721e-07 
  2.940000e+02   8.743872e-07 
  2.950000e+02   7.619773e-07 
  2.960000e+02   7.849806e-07 
  2.970000e+02   1.027132e-06 
  2.980000e+02   8.093907e-07 
  2.990000e+02   8.947456e-07 
  3.000000e+02   7.363077e-07 
  3.010000e+02   8.952095e-07 
  3.020000e+02   8.069095e-07 
  3.030000e+02   8.848679e-07 
  3.040000e+02   6.076498e-07 
  3.050000e+02   6.620498e-07 
  3.060000e+02   7.967830e-07 
  3.070000e+02   7.451079e-07 
  3.080000e+02   9.503303e-07 
  3.090000e+02   7.715661e-07 
  3.100000e+02   8.100694e-07 
  3.110000e+02   9.124522e-07 
  3.120000e+02   7.922778e-07 
  3.130000e+02   8.159406e-07 
  3.140000e+02   7.893353e-07 
  3.150000e+02   7.646855e-07 
  3.160000e+02   8.641090e-07 
  3.170000e+02   9.197386e-07 
  3.180000e+02   7.392625e-07 
  3.190000e+02   7.978970e-07 
  3.200000e+02   5.675972e-07 
  3.210000e+02   8.936029e-07 
  3.220000e+02   7.186243e-07 
  3.230000e+02   6.833204e-07 
  3.240000e+02   7.324907e-07 
  3.250000e+02   6.190693e-07 
  3.260000e+02   6.815499e-07 
  3.270000e+02   6.954048e-07 
  3.280000e+02   6.665724e-07 
  3.290000e+02   8.535152e-07 
  3.300000e+02   7.953862e-07 
  3.310000e+02   7.654589e-07 
  3.320000e+02   7.475052e-07 
  3.330000e+02   7.229199e-07 
  3.340000e+02   7.198664e-07 
  3.350000e+02   7.461763e-07 
  3.360000e+02   8.679756e-07 
  3.370000e+02   7.693894e-07 
  3.380000e+02   6.562017e-07 
  3.390000e+02   6.572776e-07 
  3.400000e+02   7.440037e-07 
  3.410000e+02   6.675352e-07 
  3.420000e+02   6.881484e-07 
  3.430000e+02   6.859952e-07 
  3.440000e+02   6.104123e-07 
  3.450000e+02   6.084275e-07 
  3.460000e+02   6.254662e-07 
  3.470000e+02   7.195119e-07 
  3.480000e+02   7.709676e-07 
  3.490000e+02   6.696480e-07 
  3.500000e+02   6.617391e-07 
  3.510000e+02   6.932208e-07 
  3.520000e+02   7.303454e-07 
  3.530000e+02   6.777328e-07 
  3.540000e+02   7.270568e-07 
  3.550000e+02   5.757925e-07 
  3.560000e+02   5.927550e-07 
  3.570000e+02   6.400310e-07 
  3.580000e+02   6.478878e-07 
  3.590000e+02   5.386981e-07 
  3.600000e+02   5.802606e-07 
  3.610000e+02   5.921494e-07 
  3.620000e+02   6.032815e-07 
  3.630000e+02   6.935752e-07 
  3.640000e+02   7.906976e-07 
  3.650000e+02   6.970241e-07 
  3.660000e+02   7.481186e-07 
  3.670000e+02   6.736224e-07 
  3.680000e+02   7.640297e-07 
  3.690000e+02   6.684719e-07 
  3.700000e+02   6.349093e-07 
  3.710000e+02   6.448647e-07 
  3.720000e+02   6.253595e-07 
  3.730000e+02   6.067322e-07 
  3.740000e+02   5.776924e-07 
  3.750000e+02   6.366279e-07 
  3.760000e+02   4.785422e-07 
  3.770000e+02   5.907726e-07 
  3.780000e+02   6.412720e-07 
  3.790000e+02   7.354379e-07 
  3.800000e+02   6.176481e-07 
  3.810000e+02   5.981531e-07 
  3.820000e+02   6.140127e-07 
  3.830000e+02   6.744917e-07 
  3.840000e+02   6.181291e-07 
  3.850000e+02   6.968451e-07 
  3.860000e+02   5.906468e-07 
  3.870000e+02   6.214522e-07 
  3.880000e+02   6.146617e-07 
  3.890000e+02   4.787221e-07 
  3.900000e+02   5.907552e-07 
  3.910000e+02   6.103560e-07 
  3.920000e+02   4.978979e-07 
  3.930000e+02   6.512068e-07 
  3.940000e+02   6.025884e-07 
  3.950000e+02   6.468306e-07 
  3.960000e+02   6.158161e-07 
  3.970000e+02   5.395747e-07 
  3.980000e+02   6.738795e-07 
  3.990000e+02   5.853670e-07 
  4.000000e+02   4.468627e-07 
  4.010000e+02   7.301512e-07 
  4.020000e+02   5.387430e-07 
  4.030000e+02   5.186722e-07 
  4.040000e+02   5.574427e-07 
  4.050000e+02   6.004905e-07 
  4.060000e+02   5.683836e-07 
  4.070000e+02   6.503734e-07 
  4.080000e+02   6.406577e-07 
  4.090000e+02   6.783454e-07 
  4.100000e+02   5.454426e-07 
  4.110000e+02   6.270065e-07 
  4.120000e+02   5.356616e-07 
  4.130000e+02   6.183016e-07 
  4.140000e+02   5.565751e-07 
  4.150000e+02   5.830628e-07 
  4.160000e+02   4.579864e-07 
  4.170000e+02   5.551967e-07 
  4.180000e+02   5.271340e-07 
  4.190000e+02   5.419701e-07 
  4.200000e+02   7.304712e-07 
  4.210000e+02   5.552423e-07 
  4.220000e+02   5.129063e-07 
  4.230000e+02   5.065913e-07 
  4.240000e+02   4.808991e-07 
  4.250000e+02   5.673525e-07 
  4.260000e+02   5.323872e-07 
  4.270000e+02   6.059381e-07 
  4.280000e+02   5.599469e-07 
  4.290000e+02   5.453079e-07 
  4.300000e+02   5.775876e-07 
  4.310000e+02   4.976395e-07 
  4.320000e+02   4.681637e-07 
  4.330000e+02   5.015108e-07 
  4.340000e+02   5.143648e-07 
  4.350000e+02   6.703525e-07 
  4.360000e+02   5.535544e-07 
  4.370000e+02   5.299542e-07 
  4.380000e+02   4.221740e-07 
  4.390000e+02   4.690095e-07 
  4.400000e+02   5.651220e-07 
  4.410000e+02   5.481635e-07 
  4.420000e+02   5.042550e-07 
  4.430000e+02   4.545796e-07 
  4.440000e+02   5.662459e-07 
  4.450000e+02   5.682080e-07 
  4.460000e+02   6.387269e-07 
  4.470000e+02   5.527602e-07 
  4.480000e+02   5.162234e-07 
  4.490000e+02   6.375090e-07 
  4.500000e+02   5.567044e-07 
  4.510000e+02   5.750195e-07 
  4.520000e+02   5.798312e-07 
  4.530000e+02   4.355436e-07 
  4.540000e+02   5.171837e-07 
  4.550000e+02   4.956597e-07 
  4.560000e+02   5.208972e-07 
  4.570000e+02   5.079713e-07 
  4.580000e+02   5.065693e-07 
  4.590000e+02   5.452885e-07 
  4.600000e+02   5.587892e-07 
  4.610000e+02   5.119118e-07 
  4.620000e+02   5.178954e-07 
  4.630000e+02   6.292921e-07 
  4.640000e+02   4.746521e-07 
  4.650000e+02   5.742326e-07 
  4.660000e+02   4.084830e-07 
  4.670000e+02   4.209416e-07 
  4.680000e+02   4.527666e-07 
  4.690000e+02   5.434995e-07 
  4.700000e+02   4.716935e-07 
  4.710000e+02   5.262014e-07 
  4.720000e+02   5.525351e-07 
  4.730000e+02   4.932909e-07 
  4.740000e+02   5.693472e-07 
  4.750000e+02   5.103963e-07 
  4.760000e+02   5.738557e-07 
  4.770000e+02   4.593485e-07 
  4.780000e+02   5.686624e-07 
  4.790000e+02   4.071860e-07 
  4.800000e+02   4.664190e-07 
  4.810000e+02   4.621692e-07 
  4.820000e+02   5.336487e-07 
  4.830000e+02   4.894300e-07 
  4.840000e+02   4.652013e-07 
  4.850000e+02   5.378854e-07 
  4.860000e+02   4.191367e-07 
  4.870000e+02   4.731723e-07 
  4.880000e+02   4.805349e-07 
  4.890000e+02   5.083226e-07 
  4.900000e+02   4.589315e-07 
  4.910000e+02   3.568011e-07 
  4.920000e+02   4.769446e-07 
  4.930000e+02   4.766279e-07 
  4.940000e+02   4.834698e-07 
  4.950000e+02   4.996502e-07 
  4.960000e+02   4.211632e-07 
  4.970000e+02   5.390071e-07 
  4.980000e+02   3.848391e-07 
  4.990000e+02   5.184451e-07 
  5.000000e+02   4.559691e-07 
  5.010000e+02   5.491589e-07 
  5.020000e+02   4.576849e-07 
  5.030000e+02   5.095915e-07 
  5.040000e+02   4.616089e-07 
  5.050000e+02   5.247949e-07 
  5.060000e+02   4.984798e-07 
  5.070000e+02   5.506406e-07 
  5.080000e+02   4.979547e-07 
  5.090000e+02   4.152768e-07 
  5.100000e+02   5.149440e-07 
  5.110000e+02   4.577030e-07 
  5.120000e+02   4.366949e-07 
  5.130000e+02   4.398817e-07 
  5.140000e+02   4.648000e-07 
  5.150000e+02   4.691298e-07 
  5.160000e+02   5.411125e-07 
  5.170000e+02   4.639457e-07 
  5.180000e+02   3.922459e-07 
  5.190000e+02   3.840840e-07 
  5.200000e+02   3.940068e-07 
  5.210000e+02   4.633398e-07 
  5.220000e+02   4.518458e-07 
  5.230000e+02   4.451802e-07 
  5.240000e+02   4.448988e-07 
  5.250000e+02   3.677245e-07 
  5.260000e+02   4.739607e-07 
  5.270000e+02   4.845335e-07 
  5.280000e+02   4.437389e-07 
  5.290000e+02   4.258723e-07 
  5.300000e+02   4.544920e-07 
  5.310000e+02   4.298147e-07 
  5.320000e+02   4.506583e-07 
  5.330000e+02   4.476911e-07 
  5.340000e+02   4.818366e-07 
  5.350000e+02   4.385603e-07 
  5.360000e+02   4.573585e-07 
  5.370000e+02   4.700976e-07 
  5.380000e+02   3.890515e-07 
  5.390000e+02   4.490220e-07 
  5.400000e+02   5.492439e-07 
  5.410000e+02   4.215071e-07 
  5.420000e+02   5.120986e-07 
  5.430000e+02   3.889210e-07 
  5.440000e+02   3.724823e-07 
  5.450000e+02   4.618932e-07 
  5.460000e+02   4.327217e-07 
  5.470000e+02   4.019570e-07 
  5.480000e+02   4.628791e-07 
  5.490000e+02   4.136296e-07 
  5.500000e+02   4.419071e-07 
  5.510000e+02   4.688241e-07 
  5.520000e+02   4.350544e-07 
  5.530000e+02   4.397968e-07 
  5.540000e+02   3.853627e-07 
  5.550000e+02   4.502199e-07 
  5.560000e+02   4.821872e-07 
  5.570000e+02   3.311476e-07 
  5.580000e+02   3.472206e-07 
  5.590000e+02   3.285514e-07 
  5.600000e+02   4.623652e-07 
  5.610000e+02   4.885812e-07 
  5.620000e+02   4.388794e-07 
  5.630000e+02   4.628791e-07 
  5.640000e+02   3.723711e-07 
  5.650000e+02   4.117659e-07 
  5.660000e+02   4.065693e-07 
  5.670000e+02   3.485335e-07 
  5.680000e+02   4.303688e-07 
  5.690000e+02   3.898651e-07 
  5.700000e+02   3.762181e-07 
  5.710000e+02   4.441226e-07 
  5.720000e+02   3.888353e-07 
  5.730000e+02   4.014489e-07 
  5.740000e+02   3.745609e-07 
  5.750000e+02   4.481793e-07 
  5.760000e+02   3.814272e-07 
  5.770000e+02   3.349223e-07 
  5.780000e+02   3.697535e-07 
  5.790000e+02   3.000160e-07 
  5.800000e+02   3.444523e-07 
  5.810000e+02   3.781056e-07 
  5.820000e+02   4.499819e-07 
  5.830000e+02   4.125139e-07 
  5.840000e+02   4.742072e-07 
  5.850000e+02   4.029227e-07 
  5.860000e+02   4.314599e-07 
  5.870000e+02   4.234649e-07 
  5.880000e+02   4.047640e-07 
  5.890000e+02   3.676665e-07 
  5.900000e+02   3.584290e-07 
  5.910000e+02   4.164668e-07 
  5.920000e+02   4.345902e-07 
  5.930000e+02   3.171156e-07 
  5.940000e+02   2.983801e-07 
  5.950000e+02   3.624642e-07 
  5.960000e+02   3.527313e-07 
  5.970000e+02   3.514996e-07 
  5.980000e+02   4.000530e-07 
  5.990000e+02   2.953333e-07 
  6.000000e+02   3.252129e-07 
  6.010000e+02   4.076676e-07 
  6.020000e+02   4.325296e-07 
  6.030000e+02   3.291133e-07 
  6.040000e+02   3.833576e-07 
  6.050000e+02   3.688144e-07 
  6.060000e+02   4.267572e-07 
  6.070000e+02   3.744573e-07 
  6.080000e+02   3.913005e-07 
  6.090000e+02   3.890189e-07 
  6.100000e+02   3.231692e-07 
  6.110000e+02   3.703412e-07 
  6.120000e+02   3.745131e-07 
  6.130000e+02   3.328969e-07 
  6.140000e+02   4.029429e-07 
  6.150000e+02   3.770017e-07 
  6.160000e+02   3.232235e-07 
  6.170000e+02   3.091974e-07 
  6.180000e+02   4.067323e-07 
  6.190000e+02   3.217852e-07 
  6.200000e+02   2.959069e-07 
  6.210000e+02   3.392021e-07 
  6.220000e+02   3.308501e-07 
  6.230000e+02   4.056708e-07 
  6.240000e+02   3.615172e-07 
  6.250000e+02   3.438543e-07 
  6.260000e+02   3.666454e-07 
  6.270000e+02   2.962386e-07 
  6.280000e+02   3.337163e-07 
  6.290000e+02   3.342291e-07 
  6.300000e+02   3.147320e-07 
  6.310000e+02   3.721871e-07 
  6.320000e+02   3.170512e-07 
  6.330000e+02   3.971497e-07 
  6.340000e+02   3.239140e-07 
  6.350000e+02   4.305761e-07 
  6.360000e+02   3.442069e-07 
  6.370000e+02   3.775151e-07 
  6.380000e+02   3.666139e-07 
  6.390000e+02   4.128761e-07 
  6.400000e+02   3.757362e-07 
  6.410000e+02   3.953849e-07 
  6.420000e+02   3.624438e-07 
  6.430000e+02   3.768583e-07 
  6.440000e+02   3.635501e-07 
  6.450000e+02   3.944166e-07 
  6.460000e+02   3.460084e-07 
  6.470000e+02   3.500531e-07 
  6.480000e+02   2.771920e-07 
  6.490000e+02   3.799843e-07 
  6.500000e+02   2.857832e-07 
  6.510000e+02   4.076934e-07 
  6.520000e+02   3.609221e-07 
  6.530000e+02   3.750121e-07 
  6.540000e+02   4.179733e-07 
  6.550000e+02   3.499261e-07 
  6.560000e+02   4.354239e-07 
  6.570000e+02   3.867495e-07 
  6.580000e+02   3.495669e-07 
  6.590000e+02   3.868898e-07 
  6.600000e+02   3.599018e-07 
  6.610000e+02   3.422227e-07 
  6.620000e+02   3.412514e-07 
  6.630000e+02   2.728922e-07 
  6.640000e+02   3.095703e-07 
  6.650000e+02   3.854658e-07 
  6.660000e+02   3.020068e-07 
  6.670000e+02   3.218599e-07 
  6.680000e+02   3.752265e-07 
  6.690000e+02   3.131095e-07 
  6.700000e+02   3.867898e-07 
  6.710000e+02   3.537607e-07 
  6.720000e+02   3.442840e-07 
  6.730000e+02   3.644633e-07 
  6.740000e+02   3.960728e-07 
  6.750000e+02   2.866850e-07 
  6.760000e+02   3.197396e-07 
  6.770000e+02   3.367483e-07 
  6.780000e+02   3.164713e-07 
  6.790000e+02   2.839565e-07 
  6.800000e+02   2.818374e-07 
  6.810000e+02   3.070299e-07 
  6.820000e+02   3.231774e-07 
  6.830000e+02   3.325128e-07 
  6.840000e+02   3.522774e-07 
  6.850000e+02   3.367336e-07 
  6.860000e+02   3.817433e-07 
  6.870000e+02   2.561129e-07 
  6.880000e+02   4.216226e-07 
  6.890000e+02   3.191359e-07 
  6.900000e+02   3.368745e-07 
  6.910000e+02   3.603379e-07 
  6.920000e+02   2.932895e-07 
  6.930000e+02   3.953041e-07 
  6.940000e+02   2.888777e-07 
  6.950000e+02   3.374375e-07 
  6.960000e+02   3.447416e-07 
  6.970000e+02   2.488320e-07 
  6.980000e+02   3.372015e-07 
  6.990000e+02   3.455164e-07 
  7.000000e+02   3.058703e-07 
  7.010000e+02   2.545065e-07 
  7.020000e+02   3.052657e-07 
  7.030000e+02   3.086722e-07 
  7.040000e+02   3.346381e-07 
  7.050000e+02   3.417132e-07 
  7.060000e+02   2.911903e-07 
  7.070000e+02   3.968118e-07 
  7.080000e+02   2.642788e-07 
  7.090000e+02   3.259675e-07 
  7.100000e+02   3.433090e-07 
  7.110000e+02   3.639521e-07 
  7.120000e+02   3.595933e-07 
  7.130000e+02   3.927595e-07 
  7.140000e+02   2.988544e-07 
  7.150000e+02   2.482083e-07 
  7.160000e+02   3.244033e-07 
  7.170000e+02   3.571006e-07 
  7.180000e+02   3.642058e-07 
  7.190000e+02   2.875020e-07 
  7.200000e+02   3.767641e-07 
  7.210000e+02   3.007181e-07 
  7.220000e+02   2.878103e-07 
  7.230000e+02   3.139023e-07 
  7.240000e+02   3.834755e-07 
  7.250000e+02   3.273894e-07 
  7.260000e+02   3.336924e-07 
  7.270000e+02   3.244843e-07 
  7.280000e+02   2.690037e-07 
  7.290000e+02   2.864960e-07 
  7.300000e+02   3.317841e-07 
  7.310000e+02   2.916489e-07 
  7.320000e+02   3.552172e-07 
  7.330000e+02   2.913729e-07 
  7.340000e+02   3.014466e-07 
  7.350000e+02   2.919709e-07 
  7.360000e+02   3.036987e-07 
  7.370000e+02   2.863086e-07 
  7.380000e+02   3.165687e-07 
  7.390000e+02   2.738005e-07 
  7.400000e+02   3.147589e-07 
  7.410000e+02   3.228315e-07 
  7.420000e+02   3.937874e-07 
  7.430000e+02   2.800876e-07 
  7.440000e+02   2.733358e-07 
  7.450000e+02   3.000595e-07 
  7.460000e+02   3.072705e-07 
  7.470000e+02   3.893510e-07 
  7.480000e+02   3.113084e-07 
  7.490000e+02   2.999050e-07 
  7.500000e+02   2.759301e-07 
  7.510000e+02   2.922016e-07 
  7.520000e+02   2.814815e-07 
  7.530000e+02   2.683369e-07 
  7.540000e+02   3.076029e-07 
  7.550000e+02   2.759801e-07 
  7.560000e+02   3.209945e-07 
  7.570000e+02   3.076716e-07 
  7.580000e+02   3.255025e-07 
  7.590000e+02   2.993736e-07 
  7.600000e+02   2.743511e-07 
  7.610000e+02   2.918782e-07 
  7.620000e+02   3.288383e-07 
  7.630000e+02   2.114900e-07 
  7.640000e+02   2.142744e-07 
  7.650000e+02   2.809956e-07 
  7.660000e+02   2.951692e-07 
  7.670000e+02   2.955759e-07 
  7.680000e+02   3.119360e-07 
  7.690000e+02   3.812417e-07 
  7.700000e+02   2.825631e-07 
  7.710000e+02   3.138814e-07 
  7.720000e+02   2.345482e-07 
  7.730000e+02   2.812517e-07 
  7.740000e+02   3.120101e-07 
  7.750000e+02   2.575479e-07 
  7.760000e+02   2.566830e-07 
  7.770000e+02   3.303737e-07 
  7.780000e+02   3.654245e-07 
  7.790000e+02   2.956904e-07 
  7.800000e+02   2.964113e-07 
  7.810000e+02   3.237730e-07 
  7.820000e+02   2.565790e-07 
  7.830000e+02   2.320746e-07 
  7.840000e+02   2.761093e-07 
  7.850000e+02   3.270725e-07 
  7.860000e+02   2.647597e-07 
  7.870000e+02   2.790896e-07 
  7.880000e+02   3.199549e-07 
  7.890000e+02   2.722409e-07 
  7.900000e+02   2.652251e-07 
  7.910000e+02   3.013499e-07 
  7.920000e+02   2.680831e-07 
  7.930000e+02   2.930798e-07 
  7.940000e+02   2.178575e-07 
  7.950000e+02   3.404384e-07 
  7.960000e+02   3.052621e-07 
  7.970000e+02   2.681763e-07 
  7.980000e+02   3.588472e-07 
  7.990000e+02   2.534929e-07 
  8.000000e+02   2.815703e-07 
