Input File: 100PC.78D
Measure Group: FFT
Measurement: FFT 2
Num of extracted Points: 801
Start Freq: 800 Hz
Span: 800 Hz
FFT Lines:  400 
Window: Uniform
Averaging Mode: RMS
Averaging Type: Linear / Fix Len
Number of Avg:   20
Overload reject: Off

    X[Hz]      Vrms/Hz^(1/... 
  8.000000e+02   2.632299e-07 
  8.010000e+02   2.846544e-07 
  8.020000e+02   3.659592e-07 
  8.030000e+02   2.254915e-07 
  8.040000e+02   2.281510e-07 
  8.050000e+02   2.793225e-07 
  8.060000e+02   2.912934e-07 
  8.070000e+02   2.823143e-07 
  8.080000e+02   2.234711e-07 
  8.090000e+02   3.506626e-07 
  8.100000e+02   2.272786e-07 
  8.110000e+02   2.550230e-07 
  8.120000e+02   2.471497e-07 
  8.130000e+02   2.721163e-07 
  8.140000e+02   2.479600e-07 
  8.150000e+02   2.404380e-07 
  8.160000e+02   3.066157e-07 
  8.170000e+02   2.883411e-07 
  8.180000e+02   2.483235e-07 
  8.190000e+02   3.199133e-07 
  8.200000e+02   2.588986e-07 
  8.210000e+02   3.015554e-07 
  8.220000e+02   2.354174e-07 
  8.230000e+02   2.239588e-07 
  8.240000e+02   2.581542e-07 
  8.250000e+02   2.380184e-07 
  8.260000e+02   2.383741e-07 
  8.270000e+02   2.878412e-07 
  8.280000e+02   2.939261e-07 
  8.290000e+02   2.990091e-07 
  8.300000e+02   2.825631e-07 
  8.310000e+02   3.390316e-07 
  8.320000e+02   2.633691e-07 
  8.330000e+02   2.822055e-07 
  8.340000e+02   2.546599e-07 
  8.350000e+02   3.086473e-07 
  8.360000e+02   2.719013e-07 
  8.370000e+02   2.273318e-07 
  8.380000e+02   2.431110e-07 
  8.390000e+02   2.561900e-07 
  8.400000e+02   2.969041e-07 
  8.410000e+02   2.135624e-07 
  8.420000e+02   2.346273e-07 
  8.430000e+02   2.588773e-07 
  8.440000e+02   2.175011e-07 
  8.450000e+02   3.007627e-07 
  8.460000e+02   2.592872e-07 
  8.470000e+02   2.416815e-07 
  8.480000e+02   2.645387e-07 
  8.490000e+02   3.121168e-07 
  8.500000e+02   2.375992e-07 
  8.510000e+02   2.346320e-07 
  8.520000e+02   2.521353e-07 
  8.530000e+02   2.395669e-07 
  8.540000e+02   2.551089e-07 
  8.550000e+02   2.809876e-07 
  8.560000e+02   3.037526e-07 
  8.570000e+02   2.393411e-07 
  8.580000e+02   2.128791e-07 
  8.590000e+02   2.554696e-07 
  8.600000e+02   2.732206e-07 
  8.610000e+02   1.865336e-07 
  8.620000e+02   2.962752e-07 
  8.630000e+02   2.794170e-07 
  8.640000e+02   2.707581e-07 
  8.650000e+02   3.119985e-07 
  8.660000e+02   2.678514e-07 
  8.670000e+02   2.562652e-07 
  8.680000e+02   2.612884e-07 
  8.690000e+02   2.209842e-07 
  8.700000e+02   2.312264e-07 
  8.710000e+02   2.431981e-07 
  8.720000e+02   2.221332e-07 
  8.730000e+02   2.294207e-07 
  8.740000e+02   2.484250e-07 
  8.750000e+02   2.697296e-07 
  8.760000e+02   2.806370e-07 
  8.770000e+02   2.292127e-07 
  8.780000e+02   2.467117e-07 
  8.790000e+02   2.866042e-07 
  8.800000e+02   2.555609e-07 
  8.810000e+02   2.142235e-07 
  8.820000e+02   2.336986e-07 
  8.830000e+02   2.797908e-07 
  8.840000e+02   2.325541e-07 
  8.850000e+02   1.716704e-07 
  8.860000e+02   2.227748e-07 
  8.870000e+02   2.562846e-07 
  8.880000e+02   2.253830e-07 
  8.890000e+02   2.426328e-07 
  8.900000e+02   2.132271e-07 
  8.910000e+02   2.740727e-07 
  8.920000e+02   2.788313e-07 
  8.930000e+02   2.591208e-07 
  8.940000e+02   2.919885e-07 
  8.950000e+02   2.563364e-07 
  8.960000e+02   2.396046e-07 
  8.970000e+02   2.061618e-07 
  8.980000e+02   2.917540e-07 
  8.990000e+02   2.549573e-07 
  9.000000e+02   2.611081e-07 
  9.010000e+02   2.274123e-07 
  9.020000e+02   2.271680e-07 
  9.030000e+02   2.217897e-07 
  9.040000e+02   2.394670e-07 
  9.050000e+02   2.909550e-07 
  9.060000e+02   2.272276e-07 
  9.070000e+02   2.667885e-07 
  9.080000e+02   1.888300e-07 
  9.090000e+02   1.898783e-07 
  9.100000e+02   2.570667e-07 
  9.110000e+02   2.256414e-07 
  9.120000e+02   2.588052e-07 
  9.130000e+02   2.196509e-07 
  9.140000e+02   2.297158e-07 
  9.150000e+02   2.738979e-07 
  9.160000e+02   2.443355e-07 
  9.170000e+02   2.427475e-07 
  9.180000e+02   2.288455e-07 
  9.190000e+02   2.202692e-07 
  9.200000e+02   2.797012e-07 
  9.210000e+02   2.273001e-07 
  9.220000e+02   2.624484e-07 
  9.230000e+02   2.516067e-07 
  9.240000e+02   2.207790e-07 
  9.250000e+02   2.346702e-07 
  9.260000e+02   2.174190e-07 
  9.270000e+02   2.445284e-07 
  9.280000e+02   2.135755e-07 
  9.290000e+02   2.104648e-07 
  9.300000e+02   2.421721e-07 
  9.310000e+02   2.795662e-07 
  9.320000e+02   2.861128e-07 
  9.330000e+02   2.299800e-07 
  9.340000e+02   2.714371e-07 
  9.350000e+02   2.921889e-07 
  9.360000e+02   2.436797e-07 
  9.370000e+02   2.579839e-07 
  9.380000e+02   2.381040e-07 
  9.390000e+02   2.436849e-07 
  9.400000e+02   2.271765e-07 
  9.410000e+02   2.161533e-07 
  9.420000e+02   2.188183e-07 
  9.430000e+02   2.419586e-07 
  9.440000e+02   1.992833e-07 
  9.450000e+02   2.463591e-07 
  9.460000e+02   2.232586e-07 
  9.470000e+02   2.496294e-07 
  9.480000e+02   2.422010e-07 
  9.490000e+02   2.619906e-07 
  9.500000e+02   2.265972e-07 
  9.510000e+02   2.097106e-07 
  9.520000e+02   2.610912e-07 
  9.530000e+02   2.515355e-07 
  9.540000e+02   1.891322e-07 
  9.550000e+02   2.275906e-07 
  9.560000e+02   2.223326e-07 
  9.570000e+02   2.598731e-07 
  9.580000e+02   2.148141e-07 
  9.590000e+02   2.220712e-07 
  9.600000e+02   2.676467e-07 
  9.610000e+02   2.587528e-07 
  9.620000e+02   2.562814e-07 
  9.630000e+02   2.188293e-07 
  9.640000e+02   2.606812e-07 
  9.650000e+02   2.444571e-07 
  9.660000e+02   2.107610e-07 
  9.670000e+02   2.108229e-07 
  9.680000e+02   1.995241e-07 
  9.690000e+02   1.968261e-07 
  9.700000e+02   1.958842e-07 
  9.710000e+02   2.856756e-07 
  9.720000e+02   2.033949e-07 
  9.730000e+02   2.104640e-07 
  9.740000e+02   2.245238e-07 
  9.750000e+02   2.099306e-07 
  9.760000e+02   2.272151e-07 
  9.770000e+02   1.978369e-07 
  9.780000e+02   2.247879e-07 
  9.790000e+02   2.507162e-07 
  9.800000e+02   1.812083e-07 
  9.810000e+02   1.836875e-07 
  9.820000e+02   2.574056e-07 
  9.830000e+02   2.141433e-07 
  9.840000e+02   2.332545e-07 
  9.850000e+02   2.196625e-07 
  9.860000e+02   2.094477e-07 
  9.870000e+02   2.233569e-07 
  9.880000e+02   1.942740e-07 
  9.890000e+02   2.128920e-07 
  9.900000e+02   2.336161e-07 
  9.910000e+02   2.663625e-07 
  9.920000e+02   2.587000e-07 
  9.930000e+02   2.031004e-07 
  9.940000e+02   2.188274e-07 
  9.950000e+02   2.331616e-07 
  9.960000e+02   1.839472e-07 
  9.970000e+02   2.031242e-07 
  9.980000e+02   2.271067e-07 
  9.990000e+02   2.039125e-07 
  1.000000e+03   2.355018e-07 
  1.001000e+03   2.168669e-07 
  1.002000e+03   1.920127e-07 
  1.003000e+03   2.006352e-07 
  1.004000e+03   2.105475e-07 
  1.005000e+03   2.362202e-07 
  1.006000e+03   2.151443e-07 
  1.007000e+03   1.958299e-07 
  1.008000e+03   2.561620e-07 
  1.009000e+03   2.276184e-07 
  1.010000e+03   2.774878e-07 
  1.011000e+03   2.373453e-07 
  1.012000e+03   2.334056e-07 
  1.013000e+03   2.123107e-07 
  1.014000e+03   2.057894e-07 
  1.015000e+03   2.212604e-07 
  1.016000e+03   2.014561e-07 
  1.017000e+03   2.083925e-07 
  1.018000e+03   1.671514e-07 
  1.019000e+03   2.267250e-07 
  1.020000e+03   2.107489e-07 
  1.021000e+03   2.290541e-07 
  1.022000e+03   2.444256e-07 
  1.023000e+03   1.961800e-07 
  1.024000e+03   2.508152e-07 
  1.025000e+03   2.082208e-07 
  1.026000e+03   2.221836e-07 
  1.027000e+03   2.283490e-07 
  1.028000e+03   2.287815e-07 
  1.029000e+03   2.225570e-07 
  1.030000e+03   2.417400e-07 
  1.031000e+03   1.676425e-07 
  1.032000e+03   1.928107e-07 
  1.033000e+03   1.762713e-07 
  1.034000e+03   2.485188e-07 
  1.035000e+03   1.992847e-07 
  1.036000e+03   2.007800e-07 
  1.037000e+03   1.722032e-07 
  1.038000e+03   2.044007e-07 
  1.039000e+03   2.100236e-07 
  1.040000e+03   1.770039e-07 
  1.041000e+03   2.289690e-07 
  1.042000e+03   2.003642e-07 
  1.043000e+03   2.170318e-07 
  1.044000e+03   1.899319e-07 
  1.045000e+03   2.119639e-07 
  1.046000e+03   2.142123e-07 
  1.047000e+03   2.667359e-07 
  1.048000e+03   2.154476e-07 
  1.049000e+03   1.943441e-07 
  1.050000e+03   1.751976e-07 
  1.051000e+03   1.937003e-07 
  1.052000e+03   1.755502e-07 
  1.053000e+03   2.121594e-07 
  1.054000e+03   1.800748e-07 
  1.055000e+03   2.323914e-07 
  1.056000e+03   2.370360e-07 
  1.057000e+03   2.200699e-07 
  1.058000e+03   1.955856e-07 
  1.059000e+03   2.373310e-07 
  1.060000e+03   2.054831e-07 
  1.061000e+03   1.931710e-07 
  1.062000e+03   2.145428e-07 
  1.063000e+03   2.200157e-07 
  1.064000e+03   2.340572e-07 
  1.065000e+03   2.646381e-07 
  1.066000e+03   2.414431e-07 
  1.067000e+03   2.207142e-07 
  1.068000e+03   1.917258e-07 
  1.069000e+03   1.851066e-07 
  1.070000e+03   1.954229e-07 
  1.071000e+03   1.871220e-07 
  1.072000e+03   2.160397e-07 
  1.073000e+03   2.439069e-07 
  1.074000e+03   2.490657e-07 
  1.075000e+03   2.072061e-07 
  1.076000e+03   1.952123e-07 
  1.077000e+03   2.095163e-07 
  1.078000e+03   1.997729e-07 
  1.079000e+03   2.019131e-07 
  1.080000e+03   1.897975e-07 
  1.081000e+03   1.755988e-07 
  1.082000e+03   2.194026e-07 
  1.083000e+03   1.669996e-07 
  1.084000e+03   2.026179e-07 
  1.085000e+03   2.153550e-07 
  1.086000e+03   2.115309e-07 
  1.087000e+03   1.961817e-07 
  1.088000e+03   1.990368e-07 
  1.089000e+03   1.810060e-07 
  1.090000e+03   1.878172e-07 
  1.091000e+03   1.774910e-07 
  1.092000e+03   1.725357e-07 
  1.093000e+03   2.060838e-07 
  1.094000e+03   1.876992e-07 
  1.095000e+03   2.043503e-07 
  1.096000e+03   2.459786e-07 
  1.097000e+03   1.990361e-07 
  1.098000e+03   1.663254e-07 
  1.099000e+03   1.941469e-07 
  1.100000e+03   1.396712e-07 
  1.101000e+03   2.265428e-07 
  1.102000e+03   1.938605e-07 
  1.103000e+03   1.891435e-07 
  1.104000e+03   1.952149e-07 
  1.105000e+03   1.516964e-07 
  1.106000e+03   1.908212e-07 
  1.107000e+03   2.088081e-07 
  1.108000e+03   1.769086e-07 
  1.109000e+03   1.755557e-07 
  1.110000e+03   2.030485e-07 
  1.111000e+03   2.201092e-07 
  1.112000e+03   1.703858e-07 
  1.113000e+03   1.868747e-07 
  1.114000e+03   2.149776e-07 
  1.115000e+03   1.747673e-07 
  1.116000e+03   2.054155e-07 
  1.117000e+03   1.950928e-07 
  1.118000e+03   2.377117e-07 
  1.119000e+03   1.781370e-07 
  1.120000e+03   2.038021e-07 
  1.121000e+03   2.163676e-07 
  1.122000e+03   1.770269e-07 
  1.123000e+03   1.859807e-07 
  1.124000e+03   1.938711e-07 
  1.125000e+03   1.879515e-07 
  1.126000e+03   2.117613e-07 
  1.127000e+03   1.985406e-07 
  1.128000e+03   1.990483e-07 
  1.129000e+03   1.876783e-07 
  1.130000e+03   1.977397e-07 
  1.131000e+03   1.802299e-07 
  1.132000e+03   1.985687e-07 
  1.133000e+03   2.234796e-07 
  1.134000e+03   1.875079e-07 
  1.135000e+03   2.182111e-07 
  1.136000e+03   1.720533e-07 
  1.137000e+03   1.995656e-07 
  1.138000e+03   1.945672e-07 
  1.139000e+03   1.712812e-07 
  1.140000e+03   2.395771e-07 
  1.141000e+03   2.103459e-07 
  1.142000e+03   2.002622e-07 
  1.143000e+03   1.939262e-07 
  1.144000e+03   1.677868e-07 
  1.145000e+03   1.931422e-07 
  1.146000e+03   2.295219e-07 
  1.147000e+03   1.707688e-07 
  1.148000e+03   2.052077e-07 
  1.149000e+03   2.211979e-07 
  1.150000e+03   1.750109e-07 
  1.151000e+03   1.840403e-07 
  1.152000e+03   1.622633e-07 
  1.153000e+03   1.788320e-07 
  1.154000e+03   1.900423e-07 
  1.155000e+03   1.728495e-07 
  1.156000e+03   1.559261e-07 
  1.157000e+03   2.125187e-07 
  1.158000e+03   1.859735e-07 
  1.159000e+03   1.534688e-07 
  1.160000e+03   1.964449e-07 
  1.161000e+03   2.035841e-07 
  1.162000e+03   1.756353e-07 
  1.163000e+03   1.810647e-07 
  1.164000e+03   1.896396e-07 
  1.165000e+03   1.806467e-07 
  1.166000e+03   1.664393e-07 
  1.167000e+03   1.927391e-07 
  1.168000e+03   1.759108e-07 
  1.169000e+03   1.760102e-07 
  1.170000e+03   1.736167e-07 
  1.171000e+03   1.733806e-07 
  1.172000e+03   2.258520e-07 
  1.173000e+03   2.198464e-07 
  1.174000e+03   1.819935e-07 
  1.175000e+03   1.606688e-07 
  1.176000e+03   1.798155e-07 
  1.177000e+03   1.523597e-07 
  1.178000e+03   1.807422e-07 
  1.179000e+03   1.553168e-07 
  1.180000e+03   1.682143e-07 
  1.181000e+03   1.676997e-07 
  1.182000e+03   2.002644e-07 
  1.183000e+03   1.873251e-07 
  1.184000e+03   1.975851e-07 
  1.185000e+03   1.730346e-07 
  1.186000e+03   2.053511e-07 
  1.187000e+03   2.547665e-07 
  1.188000e+03   1.887080e-07 
  1.189000e+03   2.057306e-07 
  1.190000e+03   1.876284e-07 
  1.191000e+03   2.145715e-07 
  1.192000e+03   2.306364e-07 
  1.193000e+03   1.730370e-07 
  1.194000e+03   2.215377e-07 
  1.195000e+03   1.929324e-07 
  1.196000e+03   1.742101e-07 
  1.197000e+03   2.160393e-07 
  1.198000e+03   1.882478e-07 
  1.199000e+03   1.973658e-07 
  1.200000e+03   2.018871e-07 
  1.201000e+03   1.733305e-07 
  1.202000e+03   1.927822e-07 
  1.203000e+03   1.874674e-07 
  1.204000e+03   1.580468e-07 
  1.205000e+03   1.920373e-07 
  1.206000e+03   1.571443e-07 
  1.207000e+03   2.150924e-07 
  1.208000e+03   1.822997e-07 
  1.209000e+03   1.854493e-07 
  1.210000e+03   2.163377e-07 
  1.211000e+03   1.774871e-07 
  1.212000e+03   2.055882e-07 
  1.213000e+03   1.665823e-07 
  1.214000e+03   2.078865e-07 
  1.215000e+03   2.133138e-07 
  1.216000e+03   1.849396e-07 
  1.217000e+03   1.809044e-07 
  1.218000e+03   1.705589e-07 
  1.219000e+03   1.441021e-07 
  1.220000e+03   1.671069e-07 
  1.221000e+03   1.632552e-07 
  1.222000e+03   1.811864e-07 
  1.223000e+03   1.859026e-07 
  1.224000e+03   1.877044e-07 
  1.225000e+03   1.805148e-07 
  1.226000e+03   2.296905e-07 
  1.227000e+03   1.708235e-07 
  1.228000e+03   1.857599e-07 
  1.229000e+03   1.554297e-07 
  1.230000e+03   1.594121e-07 
  1.231000e+03   1.908169e-07 
  1.232000e+03   1.484413e-07 
  1.233000e+03   1.808082e-07 
  1.234000e+03   2.126825e-07 
  1.235000e+03   1.840691e-07 
  1.236000e+03   1.463329e-07 
  1.237000e+03   1.685064e-07 
  1.238000e+03   1.583337e-07 
  1.239000e+03   2.010405e-07 
  1.240000e+03   1.869111e-07 
  1.241000e+03   1.816397e-07 
  1.242000e+03   1.955906e-07 
  1.243000e+03   1.748550e-07 
  1.244000e+03   1.877760e-07 
  1.245000e+03   1.745364e-07 
  1.246000e+03   2.135889e-07 
  1.247000e+03   1.690996e-07 
  1.248000e+03   1.867137e-07 
  1.249000e+03   2.160497e-07 
  1.250000e+03   1.821386e-07 
  1.251000e+03   1.607241e-07 
  1.252000e+03   1.724318e-07 
  1.253000e+03   1.634466e-07 
  1.254000e+03   1.940159e-07 
  1.255000e+03   1.345734e-07 
  1.256000e+03   1.695628e-07 
  1.257000e+03   1.482652e-07 
  1.258000e+03   1.845578e-07 
  1.259000e+03   1.509078e-07 
  1.260000e+03   1.566666e-07 
  1.261000e+03   1.735269e-07 
  1.262000e+03   1.937333e-07 
  1.263000e+03   2.047316e-07 
  1.264000e+03   1.675049e-07 
  1.265000e+03   1.440216e-07 
  1.266000e+03   1.720324e-07 
  1.267000e+03   1.742821e-07 
  1.268000e+03   2.044538e-07 
  1.269000e+03   2.123491e-07 
  1.270000e+03   1.564435e-07 
  1.271000e+03   1.412597e-07 
  1.272000e+03   1.534179e-07 
  1.273000e+03   1.443553e-07 
  1.274000e+03   1.660014e-07 
  1.275000e+03   1.391908e-07 
  1.276000e+03   1.690707e-07 
  1.277000e+03   1.457805e-07 
  1.278000e+03   1.579092e-07 
  1.279000e+03   1.634818e-07 
  1.280000e+03   1.679592e-07 
  1.281000e+03   2.002115e-07 
  1.282000e+03   1.820229e-07 
  1.283000e+03   1.632039e-07 
  1.284000e+03   1.699143e-07 
  1.285000e+03   1.405125e-07 
  1.286000e+03   1.912851e-07 
  1.287000e+03   1.701193e-07 
  1.288000e+03   1.732577e-07 
  1.289000e+03   1.988247e-07 
  1.290000e+03   1.650910e-07 
  1.291000e+03   1.707534e-07 
  1.292000e+03   1.714516e-07 
  1.293000e+03   1.416810e-07 
  1.294000e+03   1.379168e-07 
  1.295000e+03   1.588243e-07 
  1.296000e+03   1.579778e-07 
  1.297000e+03   1.637947e-07 
  1.298000e+03   1.461732e-07 
  1.299000e+03   1.347214e-07 
  1.300000e+03   1.600317e-07 
  1.301000e+03   2.132833e-07 
  1.302000e+03   1.680113e-07 
  1.303000e+03   1.790964e-07 
  1.304000e+03   1.517413e-07 
  1.305000e+03   1.687262e-07 
  1.306000e+03   1.691046e-07 
  1.307000e+03   1.517869e-07 
  1.308000e+03   1.822680e-07 
  1.309000e+03   1.910751e-07 
  1.310000e+03   1.775866e-07 
  1.311000e+03   1.837550e-07 
  1.312000e+03   1.656122e-07 
  1.313000e+03   1.349007e-07 
  1.314000e+03   1.539467e-07 
  1.315000e+03   1.762984e-07 
  1.316000e+03   1.461538e-07 
  1.317000e+03   1.573527e-07 
  1.318000e+03   1.916228e-07 
  1.319000e+03   1.634275e-07 
  1.320000e+03   1.403978e-07 
  1.321000e+03   1.651361e-07 
  1.322000e+03   1.616081e-07 
  1.323000e+03   1.760936e-07 
  1.324000e+03   1.681335e-07 
  1.325000e+03   1.701622e-07 
  1.326000e+03   1.865387e-07 
  1.327000e+03   1.671054e-07 
  1.328000e+03   1.351746e-07 
  1.329000e+03   1.692319e-07 
  1.330000e+03   1.646706e-07 
  1.331000e+03   1.601043e-07 
  1.332000e+03   1.824598e-07 
  1.333000e+03   1.795484e-07 
  1.334000e+03   1.694214e-07 
  1.335000e+03   1.806575e-07 
  1.336000e+03   1.545051e-07 
  1.337000e+03   1.412351e-07 
  1.338000e+03   1.741634e-07 
  1.339000e+03   1.946927e-07 
  1.340000e+03   1.509578e-07 
  1.341000e+03   1.711629e-07 
  1.342000e+03   1.708453e-07 
  1.343000e+03   1.803444e-07 
  1.344000e+03   1.563651e-07 
  1.345000e+03   1.553004e-07 
  1.346000e+03   1.641144e-07 
  1.347000e+03   1.572649e-07 
  1.348000e+03   1.497189e-07 
  1.349000e+03   1.564610e-07 
  1.350000e+03   1.844123e-07 
  1.351000e+03   1.411210e-07 
  1.352000e+03   1.498729e-07 
  1.353000e+03   1.554592e-07 
  1.354000e+03   1.783579e-07 
  1.355000e+03   1.630680e-07 
  1.356000e+03   1.673865e-07 
  1.357000e+03   1.281944e-07 
  1.358000e+03   1.490756e-07 
  1.359000e+03   1.771601e-07 
  1.360000e+03   1.549362e-07 
  1.361000e+03   1.359296e-07 
  1.362000e+03   1.872784e-07 
  1.363000e+03   1.582434e-07 
  1.364000e+03   1.584508e-07 
  1.365000e+03   1.515888e-07 
  1.366000e+03   1.577170e-07 
  1.367000e+03   1.641595e-07 
  1.368000e+03   1.348509e-07 
  1.369000e+03   1.583796e-07 
  1.370000e+03   1.605700e-07 
  1.371000e+03   1.254085e-07 
  1.372000e+03   1.560261e-07 
  1.373000e+03   1.659295e-07 
  1.374000e+03   1.587654e-07 
  1.375000e+03   1.759722e-07 
  1.376000e+03   1.896449e-07 
  1.377000e+03   1.493466e-07 
  1.378000e+03   1.745171e-07 
  1.379000e+03   1.795953e-07 
  1.380000e+03   1.710480e-07 
  1.381000e+03   1.866748e-07 
  1.382000e+03   2.015089e-07 
  1.383000e+03   1.288608e-07 
  1.384000e+03   1.457552e-07 
  1.385000e+03   1.435609e-07 
  1.386000e+03   1.610422e-07 
  1.387000e+03   1.391634e-07 
  1.388000e+03   1.637092e-07 
  1.389000e+03   1.765342e-07 
  1.390000e+03   1.367152e-07 
  1.391000e+03   1.695743e-07 
  1.392000e+03   1.835872e-07 
  1.393000e+03   1.420780e-07 
  1.394000e+03   1.587402e-07 
  1.395000e+03   1.176877e-07 
  1.396000e+03   1.670094e-07 
  1.397000e+03   1.500607e-07 
  1.398000e+03   1.675070e-07 
  1.399000e+03   1.726242e-07 
  1.400000e+03   1.580449e-07 
  1.401000e+03   1.391897e-07 
  1.402000e+03   1.639582e-07 
  1.403000e+03   1.801864e-07 
  1.404000e+03   1.588189e-07 
  1.405000e+03   1.213488e-07 
  1.406000e+03   1.755242e-07 
  1.407000e+03   1.231710e-07 
  1.408000e+03   1.655931e-07 
  1.409000e+03   1.629433e-07 
  1.410000e+03   1.087160e-07 
  1.411000e+03   1.562294e-07 
  1.412000e+03   1.813411e-07 
  1.413000e+03   1.786187e-07 
  1.414000e+03   1.589510e-07 
  1.415000e+03   1.303915e-07 
  1.416000e+03   1.478534e-07 
  1.417000e+03   1.551088e-07 
  1.418000e+03   1.774656e-07 
  1.419000e+03   1.742161e-07 
  1.420000e+03   1.699927e-07 
  1.421000e+03   1.405073e-07 
  1.422000e+03   1.440455e-07 
  1.423000e+03   1.635203e-07 
  1.424000e+03   1.558783e-07 
  1.425000e+03   1.639046e-07 
  1.426000e+03   1.739822e-07 
  1.427000e+03   1.515135e-07 
  1.428000e+03   1.451879e-07 
  1.429000e+03   1.379884e-07 
  1.430000e+03   1.480246e-07 
  1.431000e+03   1.557784e-07 
  1.432000e+03   1.651513e-07 
  1.433000e+03   1.530229e-07 
  1.434000e+03   1.548802e-07 
  1.435000e+03   1.252329e-07 
  1.436000e+03   1.860817e-07 
  1.437000e+03   1.463413e-07 
  1.438000e+03   1.403984e-07 
  1.439000e+03   1.298127e-07 
  1.440000e+03   1.510527e-07 
  1.441000e+03   1.436019e-07 
  1.442000e+03   1.921880e-07 
  1.443000e+03   1.624964e-07 
  1.444000e+03   1.439489e-07 
  1.445000e+03   1.344800e-07 
  1.446000e+03   1.270333e-07 
  1.447000e+03   1.710266e-07 
  1.448000e+03   1.341223e-07 
  1.449000e+03   1.314570e-07 
  1.450000e+03   1.372181e-07 
  1.451000e+03   1.253524e-07 
  1.452000e+03   1.721090e-07 
  1.453000e+03   1.447721e-07 
  1.454000e+03   1.510855e-07 
  1.455000e+03   1.469415e-07 
  1.456000e+03   1.614976e-07 
  1.457000e+03   1.621954e-07 
  1.458000e+03   1.398124e-07 
  1.459000e+03   1.531220e-07 
  1.460000e+03   1.448125e-07 
  1.461000e+03   1.274147e-07 
  1.462000e+03   1.272521e-07 
  1.463000e+03   1.301236e-07 
  1.464000e+03   1.361028e-07 
  1.465000e+03   1.467009e-07 
  1.466000e+03   1.267153e-07 
  1.467000e+03   1.463177e-07 
  1.468000e+03   1.625013e-07 
  1.469000e+03   1.556201e-07 
  1.470000e+03   1.485570e-07 
  1.471000e+03   1.385291e-07 
  1.472000e+03   1.791326e-07 
  1.473000e+03   1.315433e-07 
  1.474000e+03   1.488215e-07 
  1.475000e+03   1.565546e-07 
  1.476000e+03   1.570766e-07 
  1.477000e+03   1.560387e-07 
  1.478000e+03   1.703104e-07 
  1.479000e+03   1.433951e-07 
  1.480000e+03   1.373057e-07 
  1.481000e+03   1.479796e-07 
  1.482000e+03   1.378173e-07 
  1.483000e+03   1.346441e-07 
  1.484000e+03   1.581736e-07 
  1.485000e+03   1.208735e-07 
  1.486000e+03   1.490142e-07 
  1.487000e+03   1.534699e-07 
  1.488000e+03   1.533558e-07 
  1.489000e+03   1.196754e-07 
  1.490000e+03   1.576276e-07 
  1.491000e+03   1.440151e-07 
  1.492000e+03   1.545053e-07 
  1.493000e+03   1.325491e-07 
  1.494000e+03   1.743961e-07 
  1.495000e+03   1.334808e-07 
  1.496000e+03   1.550783e-07 
  1.497000e+03   1.495614e-07 
  1.498000e+03   1.665809e-07 
  1.499000e+03   1.350948e-07 
  1.500000e+03   1.557872e-07 
  1.501000e+03   1.369790e-07 
  1.502000e+03   1.674009e-07 
  1.503000e+03   1.435549e-07 
  1.504000e+03   1.527568e-07 
  1.505000e+03   1.240154e-07 
  1.506000e+03   1.434789e-07 
  1.507000e+03   1.611587e-07 
  1.508000e+03   1.291352e-07 
  1.509000e+03   9.866686e-08 
  1.510000e+03   1.691827e-07 
  1.511000e+03   1.654951e-07 
  1.512000e+03   1.540171e-07 
  1.513000e+03   1.133330e-07 
  1.514000e+03   1.583831e-07 
  1.515000e+03   1.341504e-07 
  1.516000e+03   1.339566e-07 
  1.517000e+03   1.591820e-07 
  1.518000e+03   1.497456e-07 
  1.519000e+03   1.569848e-07 
  1.520000e+03   1.072077e-07 
  1.521000e+03   1.408200e-07 
  1.522000e+03   1.602438e-07 
  1.523000e+03   1.373928e-07 
  1.524000e+03   1.420286e-07 
  1.525000e+03   1.656913e-07 
  1.526000e+03   1.245389e-07 
  1.527000e+03   1.168942e-07 
  1.528000e+03   1.431530e-07 
  1.529000e+03   1.656573e-07 
  1.530000e+03   1.317453e-07 
  1.531000e+03   1.201380e-07 
  1.532000e+03   1.310701e-07 
  1.533000e+03   1.460772e-07 
  1.534000e+03   1.398202e-07 
  1.535000e+03   1.650389e-07 
  1.536000e+03   1.443985e-07 
  1.537000e+03   1.608569e-07 
  1.538000e+03   1.506330e-07 
  1.539000e+03   1.359416e-07 
  1.540000e+03   1.512645e-07 
  1.541000e+03   1.092703e-07 
  1.542000e+03   1.593789e-07 
  1.543000e+03   1.389892e-07 
  1.544000e+03   1.271036e-07 
  1.545000e+03   1.478633e-07 
  1.546000e+03   1.408998e-07 
  1.547000e+03   1.690884e-07 
  1.548000e+03   1.487921e-07 
  1.549000e+03   1.442734e-07 
  1.550000e+03   1.404446e-07 
  1.551000e+03   1.336753e-07 
  1.552000e+03   1.366863e-07 
  1.553000e+03   1.416257e-07 
  1.554000e+03   1.352006e-07 
  1.555000e+03   1.251263e-07 
  1.556000e+03   1.505919e-07 
  1.557000e+03   1.477109e-07 
  1.558000e+03   1.400119e-07 
  1.559000e+03   1.312514e-07 
  1.560000e+03   1.336418e-07 
  1.561000e+03   1.609945e-07 
  1.562000e+03   1.422013e-07 
  1.563000e+03   1.281022e-07 
  1.564000e+03   1.342787e-07 
  1.565000e+03   1.373895e-07 
  1.566000e+03   1.521813e-07 
  1.567000e+03   1.779111e-07 
  1.568000e+03   1.370477e-07 
  1.569000e+03   1.528827e-07 
  1.570000e+03   1.679923e-07 
  1.571000e+03   1.377725e-07 
  1.572000e+03   1.287614e-07 
  1.573000e+03   1.371298e-07 
  1.574000e+03   1.603676e-07 
  1.575000e+03   1.261529e-07 
  1.576000e+03   1.108737e-07 
  1.577000e+03   1.166454e-07 
  1.578000e+03   1.393760e-07 
  1.579000e+03   1.454815e-07 
  1.580000e+03   1.571587e-07 
  1.581000e+03   1.906609e-07 
  1.582000e+03   1.526270e-07 
  1.583000e+03   1.570697e-07 
  1.584000e+03   1.488802e-07 
  1.585000e+03   1.196536e-07 
  1.586000e+03   1.452344e-07 
  1.587000e+03   1.698910e-07 
  1.588000e+03   1.464426e-07 
  1.589000e+03   1.395332e-07 
  1.590000e+03   1.448509e-07 
  1.591000e+03   1.539535e-07 
  1.592000e+03   1.195960e-07 
  1.593000e+03   1.349556e-07 
  1.594000e+03   1.691830e-07 
  1.595000e+03   1.688674e-07 
  1.596000e+03   1.283273e-07 
  1.597000e+03   1.118011e-07 
  1.598000e+03   1.336658e-07 
  1.599000e+03   1.333633e-07 
  1.600000e+03   1.602319e-07 
