Input File: 100TB.78D
Measure Group: FFT
Measurement: FFT 2
Num of extracted Points: 801
Start Freq: -0 Hz
Span: 800 Hz
FFT Lines:  400 
Window: Uniform
Averaging Mode: RMS
Averaging Type: Linear / Fix Len
Number of Avg:   20
Overload reject: Off

    X[Hz]      Vrms/Hz^(1/... 
  0.000000e+00   6.364905e-04 
  1.000000e+00   9.234372e-05 
  2.000000e+00   8.437192e-05 
  3.000000e+00   9.256668e-05 
  4.000000e+00   7.871437e-05 
  5.000000e+00   7.536227e-05 
  6.000000e+00   6.587252e-05 
  7.000000e+00   4.605309e-05 
  8.000000e+00   3.931745e-05 
  9.000000e+00   3.795980e-05 
  1.000000e+01   3.237305e-05 
  1.100000e+01   4.159446e-05 
  1.200000e+01   2.830653e-05 
  1.300000e+01   3.257656e-05 
  1.400000e+01   2.608832e-05 
  1.500000e+01   2.666665e-05 
  1.600000e+01   2.135698e-05 
  1.700000e+01   1.811852e-05 
  1.800000e+01   1.696454e-05 
  1.900000e+01   2.294576e-05 
  2.000000e+01   2.096770e-05 
  2.100000e+01   1.964116e-05 
  2.200000e+01   1.676630e-05 
  2.300000e+01   1.942620e-05 
  2.400000e+01   2.101770e-05 
  2.500000e+01   1.396117e-05 
  2.600000e+01   1.548790e-05 
  2.700000e+01   1.285936e-05 
  2.800000e+01   8.689211e-06 
  2.900000e+01   9.480639e-06 
  3.000000e+01   1.074681e-05 
  3.100000e+01   1.288078e-05 
  3.200000e+01   1.187827e-05 
  3.300000e+01   1.326827e-05 
  3.400000e+01   1.163260e-05 
  3.500000e+01   1.106301e-05 
  3.600000e+01   1.195439e-05 
  3.700000e+01   9.140386e-06 
  3.800000e+01   1.193746e-05 
  3.900000e+01   9.160963e-06 
  4.000000e+01   8.730429e-06 
  4.100000e+01   8.238479e-06 
  4.200000e+01   9.862342e-06 
  4.300000e+01   7.899148e-06 
  4.400000e+01   1.174963e-05 
  4.500000e+01   8.636407e-06 
  4.600000e+01   1.090827e-05 
  4.700000e+01   9.904905e-06 
  4.800000e+01   9.468315e-06 
  4.900000e+01   6.715773e-06 
  5.000000e+01   1.133483e-05 
  5.100000e+01   8.687017e-06 
  5.200000e+01   8.861840e-06 
  5.300000e+01   9.601384e-06 
  5.400000e+01   7.618698e-06 
  5.500000e+01   8.903667e-06 
  5.600000e+01   9.344053e-06 
  5.700000e+01   7.353804e-06 
  5.800000e+01   8.090697e-06 
  5.900000e+01   9.668423e-06 
  6.000000e+01   1.017514e-04 
  6.100000e+01   8.018202e-06 
  6.200000e+01   8.709844e-06 
  6.300000e+01   8.207523e-06 
  6.400000e+01   8.805682e-06 
  6.500000e+01   8.014371e-06 
  6.600000e+01   6.824047e-06 
  6.700000e+01   8.095563e-06 
  6.800000e+01   6.327543e-06 
  6.900000e+01   7.527114e-06 
  7.000000e+01   7.452935e-06 
  7.100000e+01   8.070801e-06 
  7.200000e+01   8.791324e-06 
  7.300000e+01   9.357927e-06 
  7.400000e+01   7.797039e-06 
  7.500000e+01   6.621612e-06 
  7.600000e+01   6.367326e-06 
  7.700000e+01   8.507166e-06 
  7.800000e+01   7.171629e-06 
  7.900000e+01   7.216359e-06 
  8.000000e+01   6.432717e-06 
  8.100000e+01   8.346628e-06 
  8.200000e+01   7.056071e-06 
  8.300000e+01   7.243448e-06 
  8.400000e+01   6.439773e-06 
  8.500000e+01   7.885000e-06 
  8.600000e+01   7.549058e-06 
  8.700000e+01   7.113057e-06 
  8.800000e+01   6.699732e-06 
  8.900000e+01   5.916824e-06 
  9.000000e+01   6.679315e-06 
  9.100000e+01   6.869498e-06 
  9.200000e+01   5.050587e-06 
  9.300000e+01   6.619927e-06 
  9.400000e+01   7.073244e-06 
  9.500000e+01   5.636069e-06 
  9.600000e+01   1.173762e-05 
  9.700000e+01   1.516623e-05 
  9.800000e+01   7.648880e-06 
  9.900000e+01   6.967550e-06 
  1.000000e+02   7.725906e-06 
  1.010000e+02   5.841669e-06 
  1.020000e+02   6.094854e-06 
  1.030000e+02   5.360036e-06 
  1.040000e+02   6.981332e-06 
  1.050000e+02   6.425249e-06 
  1.060000e+02   5.708592e-06 
  1.070000e+02   7.268317e-06 
  1.080000e+02   6.033693e-06 
  1.090000e+02   6.696774e-06 
  1.100000e+02   6.897891e-06 
  1.110000e+02   5.868894e-06 
  1.120000e+02   5.940284e-06 
  1.130000e+02   6.345707e-06 
  1.140000e+02   6.036466e-06 
  1.150000e+02   5.369144e-06 
  1.160000e+02   6.860662e-06 
  1.170000e+02   4.630389e-06 
  1.180000e+02   5.598466e-06 
  1.190000e+02   6.803851e-06 
  1.200000e+02   2.725315e-05 
  1.210000e+02   5.443884e-06 
  1.220000e+02   5.688141e-06 
  1.230000e+02   6.400640e-06 
  1.240000e+02   5.040921e-06 
  1.250000e+02   4.655976e-06 
  1.260000e+02   5.101772e-06 
  1.270000e+02   4.473087e-06 
  1.280000e+02   5.650248e-06 
  1.290000e+02   5.719274e-06 
  1.300000e+02   6.017620e-06 
  1.310000e+02   6.021705e-06 
  1.320000e+02   5.320805e-06 
  1.330000e+02   5.525685e-06 
  1.340000e+02   5.400042e-06 
  1.350000e+02   6.464882e-06 
  1.360000e+02   5.326936e-06 
  1.370000e+02   4.684625e-06 
  1.380000e+02   6.069196e-06 
  1.390000e+02   6.058420e-06 
  1.400000e+02   6.334199e-06 
  1.410000e+02   6.085691e-06 
  1.420000e+02   3.824378e-06 
  1.430000e+02   6.192531e-06 
  1.440000e+02   5.992320e-06 
  1.450000e+02   1.907697e-05 
  1.460000e+02   5.364760e-06 
  1.470000e+02   4.601422e-06 
  1.480000e+02   5.481656e-06 
  1.490000e+02   5.775086e-06 
  1.500000e+02   5.463589e-06 
  1.510000e+02   4.980538e-06 
  1.520000e+02   4.908741e-06 
  1.530000e+02   5.245500e-06 
  1.540000e+02   5.248166e-06 
  1.550000e+02   5.536285e-06 
  1.560000e+02   4.773973e-06 
  1.570000e+02   5.375281e-06 
  1.580000e+02   4.995961e-06 
  1.590000e+02   4.657491e-06 
  1.600000e+02   3.390147e-06 
  1.610000e+02   4.755736e-06 
  1.620000e+02   5.370976e-06 
  1.630000e+02   5.482269e-06 
  1.640000e+02   4.241573e-06 
  1.650000e+02   4.830472e-06 
  1.660000e+02   5.781445e-06 
  1.670000e+02   3.578191e-06 
  1.680000e+02   5.254342e-06 
  1.690000e+02   5.456070e-06 
  1.700000e+02   4.681211e-06 
  1.710000e+02   5.242453e-06 
  1.720000e+02   6.852188e-06 
  1.730000e+02   6.432141e-06 
  1.740000e+02   8.622148e-06 
  1.750000e+02   6.319374e-06 
  1.760000e+02   5.923319e-06 
  1.770000e+02   8.298022e-06 
  1.780000e+02   9.382056e-06 
  1.790000e+02   1.731154e-05 
  1.800000e+02   1.864950e-04 
  1.810000e+02   2.081508e-05 
  1.820000e+02   9.032654e-06 
  1.830000e+02   6.837287e-06 
  1.840000e+02   6.938056e-06 
  1.850000e+02   6.227253e-06 
  1.860000e+02   5.479779e-06 
  1.870000e+02   5.077693e-06 
  1.880000e+02   6.577786e-06 
  1.890000e+02   4.794000e-06 
  1.900000e+02   4.672613e-06 
  1.910000e+02   5.711879e-06 
  1.920000e+02   6.553265e-06 
  1.930000e+02   1.659772e-05 
  1.940000e+02   1.078052e-05 
  1.950000e+02   6.724988e-06 
  1.960000e+02   4.908245e-06 
  1.970000e+02   5.370056e-06 
  1.980000e+02   5.023037e-06 
  1.990000e+02   5.397328e-06 
  2.000000e+02   6.241866e-06 
  2.010000e+02   5.427285e-06 
  2.020000e+02   6.906354e-06 
  2.030000e+02   7.962341e-06 
  2.040000e+02   7.266616e-06 
  2.050000e+02   8.060137e-06 
  2.060000e+02   7.291467e-06 
  2.070000e+02   5.747528e-06 
  2.080000e+02   6.642586e-06 
  2.090000e+02   4.696519e-06 
  2.100000e+02   5.253938e-06 
  2.110000e+02   4.924155e-06 
  2.120000e+02   4.331334e-06 
  2.130000e+02   5.223256e-06 
  2.140000e+02   5.863687e-06 
  2.150000e+02   4.776358e-06 
  2.160000e+02   4.252622e-06 
  2.170000e+02   4.362990e-06 
  2.180000e+02   5.007481e-06 
  2.190000e+02   4.597646e-06 
  2.200000e+02   3.688581e-06 
  2.210000e+02   4.074288e-06 
  2.220000e+02   4.709955e-06 
  2.230000e+02   4.478165e-06 
  2.240000e+02   4.703737e-06 
  2.250000e+02   3.605425e-06 
  2.260000e+02   3.984877e-06 
  2.270000e+02   3.878894e-06 
  2.280000e+02   4.887905e-06 
  2.290000e+02   3.921462e-06 
  2.300000e+02   3.917589e-06 
  2.310000e+02   5.427999e-06 
  2.320000e+02   4.007755e-06 
  2.330000e+02   4.741152e-06 
  2.340000e+02   3.651351e-06 
  2.350000e+02   4.439621e-06 
  2.360000e+02   4.297706e-06 
  2.370000e+02   3.993792e-06 
  2.380000e+02   4.743783e-06 
  2.390000e+02   4.193719e-06 
  2.400000e+02   6.071938e-06 
  2.410000e+02   5.481724e-06 
  2.420000e+02   9.768816e-06 
  2.430000e+02   4.183482e-06 
  2.440000e+02   4.652504e-06 
  2.450000e+02   3.470638e-06 
  2.460000e+02   3.629483e-06 
  2.470000e+02   3.519753e-06 
  2.480000e+02   4.393873e-06 
  2.490000e+02   4.475215e-06 
  2.500000e+02   2.885094e-06 
  2.510000e+02   3.799202e-06 
  2.520000e+02   3.175747e-06 
  2.530000e+02   4.135773e-06 
  2.540000e+02   3.230267e-06 
  2.550000e+02   3.906360e-06 
  2.560000e+02   4.574666e-06 
  2.570000e+02   3.363069e-06 
  2.580000e+02   4.301967e-06 
  2.590000e+02   3.356835e-06 
  2.600000e+02   4.027728e-06 
  2.610000e+02   3.719962e-06 
  2.620000e+02   3.641717e-06 
  2.630000e+02   3.259718e-06 
  2.640000e+02   3.693020e-06 
  2.650000e+02   3.093721e-06 
  2.660000e+02   3.958015e-06 
  2.670000e+02   3.687785e-06 
  2.680000e+02   3.085061e-06 
  2.690000e+02   3.947485e-06 
  2.700000e+02   4.292626e-06 
  2.710000e+02   3.329997e-06 
  2.720000e+02   3.655328e-06 
  2.730000e+02   4.025708e-06 
  2.740000e+02   3.968255e-06 
  2.750000e+02   3.551185e-06 
  2.760000e+02   4.074186e-06 
  2.770000e+02   4.276677e-06 
  2.780000e+02   3.912204e-06 
  2.790000e+02   4.195092e-06 
  2.800000e+02   3.307952e-06 
  2.810000e+02   4.167997e-06 
  2.820000e+02   3.768254e-06 
  2.830000e+02   3.962544e-06 
  2.840000e+02   4.137242e-06 
  2.850000e+02   3.993153e-06 
  2.860000e+02   5.323873e-06 
  2.870000e+02   4.544188e-06 
  2.880000e+02   6.582834e-06 
  2.890000e+02   9.771794e-06 
  2.900000e+02   4.797595e-05 
  2.910000e+02   1.219568e-05 
  2.920000e+02   7.146809e-06 
  2.930000e+02   5.712609e-06 
  2.940000e+02   3.930616e-06 
  2.950000e+02   4.586532e-06 
  2.960000e+02   4.845304e-06 
  2.970000e+02   5.013021e-06 
  2.980000e+02   5.128094e-06 
  2.990000e+02   7.794679e-06 
  3.000000e+02   5.129261e-05 
  3.010000e+02   1.058299e-05 
  3.020000e+02   5.018011e-06 
  3.030000e+02   4.844817e-06 
  3.040000e+02   5.586988e-06 
  3.050000e+02   4.711595e-06 
  3.060000e+02   3.391322e-06 
  3.070000e+02   4.709963e-06 
  3.080000e+02   3.647071e-06 
  3.090000e+02   4.394635e-06 
  3.100000e+02   4.246639e-06 
  3.110000e+02   3.644991e-06 
  3.120000e+02   4.185631e-06 
  3.130000e+02   3.877189e-06 
  3.140000e+02   4.576145e-06 
  3.150000e+02   3.840077e-06 
  3.160000e+02   3.843833e-06 
  3.170000e+02   3.649110e-06 
  3.180000e+02   4.001774e-06 
  3.190000e+02   4.993463e-06 
  3.200000e+02   4.514794e-06 
  3.210000e+02   4.206723e-06 
  3.220000e+02   4.036267e-06 
  3.230000e+02   4.153409e-06 
  3.240000e+02   3.575005e-06 
  3.250000e+02   4.519139e-06 
  3.260000e+02   3.584758e-06 
  3.270000e+02   4.027761e-06 
  3.280000e+02   4.261417e-06 
  3.290000e+02   4.037200e-06 
  3.300000e+02   3.554484e-06 
  3.310000e+02   4.393994e-06 
  3.320000e+02   3.403256e-06 
  3.330000e+02   3.743180e-06 
  3.340000e+02   4.187002e-06 
  3.350000e+02   3.976028e-06 
  3.360000e+02   3.651209e-06 
  3.370000e+02   4.116087e-06 
  3.380000e+02   1.204677e-05 
  3.390000e+02   9.587154e-06 
  3.400000e+02   4.560295e-06 
  3.410000e+02   4.966009e-06 
  3.420000e+02   4.575663e-06 
  3.430000e+02   4.832264e-06 
  3.440000e+02   3.655020e-06 
  3.450000e+02   5.332077e-06 
  3.460000e+02   4.119251e-06 
  3.470000e+02   4.318743e-06 
  3.480000e+02   4.457441e-06 
  3.490000e+02   4.655403e-06 
  3.500000e+02   3.836425e-06 
  3.510000e+02   5.166026e-06 
  3.520000e+02   4.799972e-06 
  3.530000e+02   6.167028e-06 
  3.540000e+02   1.009968e-05 
  3.550000e+02   1.413698e-05 
  3.560000e+02   9.451150e-06 
  3.570000e+02   8.174865e-06 
  3.580000e+02   9.398842e-06 
  3.590000e+02   6.995467e-06 
  3.600000e+02   9.826388e-06 
  3.610000e+02   8.634146e-06 
  3.620000e+02   9.413760e-06 
  3.630000e+02   9.324387e-06 
  3.640000e+02   9.159881e-06 
  3.650000e+02   9.782931e-06 
  3.660000e+02   1.100368e-05 
  3.670000e+02   1.483901e-05 
  3.680000e+02   2.383492e-05 
  3.690000e+02   1.572892e-05 
  3.700000e+02   1.163721e-05 
  3.710000e+02   1.204258e-05 
  3.720000e+02   1.140201e-05 
  3.730000e+02   1.158333e-05 
  3.740000e+02   1.406383e-05 
  3.750000e+02   1.399595e-05 
  3.760000e+02   1.545505e-05 
  3.770000e+02   1.684304e-05 
  3.780000e+02   1.232520e-05 
  3.790000e+02   1.428770e-05 
  3.800000e+02   1.447833e-05 
  3.810000e+02   1.337911e-05 
  3.820000e+02   1.834530e-05 
  3.830000e+02   1.825060e-05 
  3.840000e+02   2.544335e-05 
  3.850000e+02   4.703540e-05 
  3.860000e+02   1.342716e-04 
  3.870000e+02   2.125054e-04 
  3.880000e+02   4.478330e-05 
  3.890000e+02   2.674539e-05 
  3.900000e+02   1.808552e-05 
  3.910000e+02   1.786728e-05 
  3.920000e+02   1.353384e-05 
  3.930000e+02   1.499374e-05 
  3.940000e+02   1.266268e-05 
  3.950000e+02   1.021067e-05 
  3.960000e+02   1.009884e-05 
  3.970000e+02   9.690665e-06 
  3.980000e+02   8.928238e-06 
  3.990000e+02   7.532133e-06 
  4.000000e+02   8.600451e-06 
  4.010000e+02   6.761240e-06 
  4.020000e+02   6.295745e-06 
  4.030000e+02   7.573974e-06 
  4.040000e+02   7.180831e-06 
  4.050000e+02   7.685800e-06 
  4.060000e+02   7.183605e-06 
  4.070000e+02   6.368625e-06 
  4.080000e+02   5.150261e-06 
  4.090000e+02   5.939163e-06 
  4.100000e+02   6.108749e-06 
  4.110000e+02   5.138214e-06 
  4.120000e+02   4.803296e-06 
  4.130000e+02   6.344349e-06 
  4.140000e+02   5.609946e-06 
  4.150000e+02   5.139746e-06 
  4.160000e+02   5.560430e-06 
  4.170000e+02   5.706904e-06 
  4.180000e+02   4.961681e-06 
  4.190000e+02   5.983958e-06 
  4.200000e+02   1.580051e-05 
  4.210000e+02   5.976492e-06 
  4.220000e+02   4.257803e-06 
  4.230000e+02   4.433298e-06 
  4.240000e+02   4.080748e-06 
  4.250000e+02   4.320394e-06 
  4.260000e+02   4.202983e-06 
  4.270000e+02   3.957064e-06 
  4.280000e+02   3.843129e-06 
  4.290000e+02   3.912090e-06 
  4.300000e+02   3.895677e-06 
  4.310000e+02   3.466530e-06 
  4.320000e+02   4.313417e-06 
  4.330000e+02   4.343696e-06 
  4.340000e+02   4.969982e-06 
  4.350000e+02   1.054209e-05 
  4.360000e+02   5.166412e-06 
  4.370000e+02   4.123387e-06 
  4.380000e+02   4.051805e-06 
  4.390000e+02   4.007878e-06 
  4.400000e+02   3.049055e-06 
  4.410000e+02   3.953483e-06 
  4.420000e+02   3.572929e-06 
  4.430000e+02   3.594738e-06 
  4.440000e+02   4.150148e-06 
  4.450000e+02   3.322891e-06 
  4.460000e+02   3.433372e-06 
  4.470000e+02   3.566095e-06 
  4.480000e+02   3.679430e-06 
  4.490000e+02   4.470117e-06 
  4.500000e+02   3.666843e-06 
  4.510000e+02   3.551323e-06 
  4.520000e+02   3.737786e-06 
  4.530000e+02   3.301043e-06 
  4.540000e+02   3.669874e-06 
  4.550000e+02   3.850870e-06 
  4.560000e+02   4.202373e-06 
  4.570000e+02   3.389460e-06 
  4.580000e+02   3.091044e-06 
  4.590000e+02   3.479302e-06 
  4.600000e+02   4.286791e-06 
  4.610000e+02   3.045133e-06 
  4.620000e+02   3.431537e-06 
  4.630000e+02   4.149560e-06 
  4.640000e+02   3.157435e-06 
  4.650000e+02   3.035567e-06 
  4.660000e+02   2.511174e-06 
  4.670000e+02   3.651994e-06 
  4.680000e+02   3.649345e-06 
  4.690000e+02   3.820151e-06 
  4.700000e+02   2.874555e-06 
  4.710000e+02   3.298075e-06 
  4.720000e+02   3.415518e-06 
  4.730000e+02   3.787763e-06 
  4.740000e+02   2.918796e-06 
  4.750000e+02   3.740585e-06 
  4.760000e+02   3.688522e-06 
  4.770000e+02   4.135738e-06 
  4.780000e+02   3.380943e-06 
  4.790000e+02   3.411379e-06 
  4.800000e+02   3.421583e-06 
  4.810000e+02   4.097717e-06 
  4.820000e+02   4.141070e-06 
  4.830000e+02   1.791255e-05 
  4.840000e+02   1.539409e-05 
  4.850000e+02   5.080643e-06 
  4.860000e+02   3.502791e-06 
  4.870000e+02   3.996888e-06 
  4.880000e+02   3.038560e-06 
  4.890000e+02   2.519117e-06 
  4.900000e+02   3.152837e-06 
  4.910000e+02   3.301633e-06 
  4.920000e+02   3.835866e-06 
  4.930000e+02   3.208978e-06 
  4.940000e+02   3.031311e-06 
  4.950000e+02   2.826150e-06 
  4.960000e+02   3.139692e-06 
  4.970000e+02   3.257171e-06 
  4.980000e+02   3.335725e-06 
  4.990000e+02   2.981357e-06 
  5.000000e+02   2.791527e-06 
  5.010000e+02   3.134543e-06 
  5.020000e+02   2.862434e-06 
  5.030000e+02   2.910117e-06 
  5.040000e+02   3.117188e-06 
  5.050000e+02   2.997700e-06 
  5.060000e+02   3.442005e-06 
  5.070000e+02   2.692269e-06 
  5.080000e+02   3.127554e-06 
  5.090000e+02   2.820475e-06 
  5.100000e+02   2.646779e-06 
  5.110000e+02   2.976665e-06 
  5.120000e+02   2.933986e-06 
  5.130000e+02   3.145460e-06 
  5.140000e+02   2.993683e-06 
  5.150000e+02   2.315225e-06 
  5.160000e+02   2.602916e-06 
  5.170000e+02   2.614401e-06 
  5.180000e+02   2.890419e-06 
  5.190000e+02   3.221259e-06 
  5.200000e+02   2.293355e-06 
  5.210000e+02   2.486594e-06 
  5.220000e+02   3.435139e-06 
  5.230000e+02   2.853600e-06 
  5.240000e+02   3.298028e-06 
  5.250000e+02   3.051776e-06 
  5.260000e+02   2.995200e-06 
  5.270000e+02   2.915868e-06 
  5.280000e+02   3.354719e-06 
  5.290000e+02   3.209054e-06 
  5.300000e+02   3.349647e-06 
  5.310000e+02   7.860437e-06 
  5.320000e+02   1.013981e-05 
  5.330000e+02   4.294498e-06 
  5.340000e+02   3.216202e-06 
  5.350000e+02   3.065283e-06 
  5.360000e+02   3.517273e-06 
  5.370000e+02   2.030867e-06 
  5.380000e+02   3.550747e-06 
  5.390000e+02   2.952958e-06 
  5.400000e+02   9.953370e-06 
  5.410000e+02   4.911749e-06 
  5.420000e+02   3.476990e-06 
  5.430000e+02   2.918575e-06 
  5.440000e+02   2.938002e-06 
  5.450000e+02   2.849886e-06 
  5.460000e+02   2.887142e-06 
  5.470000e+02   2.521078e-06 
  5.480000e+02   2.763717e-06 
  5.490000e+02   2.677036e-06 
  5.500000e+02   3.753051e-06 
  5.510000e+02   3.453734e-06 
  5.520000e+02   2.792023e-06 
  5.530000e+02   3.064143e-06 
  5.540000e+02   3.504154e-06 
  5.550000e+02   2.583249e-06 
  5.560000e+02   2.349546e-06 
  5.570000e+02   3.188812e-06 
  5.580000e+02   3.740310e-06 
  5.590000e+02   2.976392e-06 
  5.600000e+02   3.223426e-06 
  5.610000e+02   2.638300e-06 
  5.620000e+02   2.546633e-06 
  5.630000e+02   2.561964e-06 
  5.640000e+02   3.344801e-06 
  5.650000e+02   3.031174e-06 
  5.660000e+02   3.298547e-06 
  5.670000e+02   2.808488e-06 
  5.680000e+02   3.387692e-06 
  5.690000e+02   2.950185e-06 
  5.700000e+02   3.094732e-06 
  5.710000e+02   2.348694e-06 
  5.720000e+02   2.786560e-06 
  5.730000e+02   2.463476e-06 
  5.740000e+02   2.673910e-06 
  5.750000e+02   2.770772e-06 
  5.760000e+02   2.832498e-06 
  5.770000e+02   3.040955e-06 
  5.780000e+02   3.017639e-06 
  5.790000e+02   5.190060e-06 
  5.800000e+02   1.072281e-05 
  5.810000e+02   6.174465e-06 
  5.820000e+02   3.410242e-06 
  5.830000e+02   3.454383e-06 
  5.840000e+02   3.390683e-06 
  5.850000e+02   2.314660e-06 
  5.860000e+02   3.016803e-06 
  5.870000e+02   3.417857e-06 
  5.880000e+02   2.842032e-06 
  5.890000e+02   3.159054e-06 
  5.900000e+02   2.854440e-06 
  5.910000e+02   3.327107e-06 
  5.920000e+02   3.012095e-06 
  5.930000e+02   2.470053e-06 
  5.940000e+02   3.269428e-06 
  5.950000e+02   2.819790e-06 
  5.960000e+02   3.267754e-06 
  5.970000e+02   3.016249e-06 
  5.980000e+02   2.988710e-06 
  5.990000e+02   2.465490e-06 
  6.000000e+02   3.058523e-06 
  6.010000e+02   3.497085e-06 
  6.020000e+02   3.032078e-06 
  6.030000e+02   2.743948e-06 
  6.040000e+02   3.120965e-06 
  6.050000e+02   2.838034e-06 
  6.060000e+02   3.017964e-06 
  6.070000e+02   2.838881e-06 
  6.080000e+02   2.476692e-06 
  6.090000e+02   2.884259e-06 
  6.100000e+02   2.738025e-06 
  6.110000e+02   2.542785e-06 
  6.120000e+02   2.847555e-06 
  6.130000e+02   3.221799e-06 
  6.140000e+02   2.611311e-06 
  6.150000e+02   2.619461e-06 
  6.160000e+02   3.042543e-06 
  6.170000e+02   3.414471e-06 
  6.180000e+02   3.393437e-06 
  6.190000e+02   2.659036e-06 
  6.200000e+02   3.109777e-06 
  6.210000e+02   3.037892e-06 
  6.220000e+02   2.124057e-06 
  6.230000e+02   3.480471e-06 
  6.240000e+02   2.887374e-06 
  6.250000e+02   2.823931e-06 
  6.260000e+02   3.415812e-06 
  6.270000e+02   3.074724e-06 
  6.280000e+02   4.400288e-06 
  6.290000e+02   3.717383e-06 
  6.300000e+02   3.105754e-06 
  6.310000e+02   2.398499e-06 
  6.320000e+02   2.632186e-06 
  6.330000e+02   2.144552e-06 
  6.340000e+02   2.781627e-06 
  6.350000e+02   2.982499e-06 
  6.360000e+02   2.621324e-06 
  6.370000e+02   2.512996e-06 
  6.380000e+02   2.531682e-06 
  6.390000e+02   2.796075e-06 
  6.400000e+02   2.818228e-06 
  6.410000e+02   3.076515e-06 
  6.420000e+02   2.934671e-06 
  6.430000e+02   2.466126e-06 
  6.440000e+02   3.229887e-06 
  6.450000e+02   2.862176e-06 
  6.460000e+02   2.692586e-06 
  6.470000e+02   3.006717e-06 
  6.480000e+02   2.232913e-06 
  6.490000e+02   2.493625e-06 
  6.500000e+02   2.741123e-06 
  6.510000e+02   2.950423e-06 
  6.520000e+02   3.018608e-06 
  6.530000e+02   2.725570e-06 
  6.540000e+02   2.681051e-06 
  6.550000e+02   2.944097e-06 
  6.560000e+02   2.912750e-06 
  6.570000e+02   2.748344e-06 
  6.580000e+02   3.068780e-06 
  6.590000e+02   3.133253e-06 
  6.600000e+02   5.377804e-06 
  6.610000e+02   4.075939e-06 
  6.620000e+02   2.654998e-06 
  6.630000e+02   2.673107e-06 
  6.640000e+02   2.914481e-06 
  6.650000e+02   2.816897e-06 
  6.660000e+02   2.241230e-06 
  6.670000e+02   3.146759e-06 
  6.680000e+02   3.033721e-06 
  6.690000e+02   2.687004e-06 
  6.700000e+02   3.232381e-06 
  6.710000e+02   3.738353e-06 
  6.720000e+02   3.335691e-06 
  6.730000e+02   4.239525e-06 
  6.740000e+02   3.847944e-06 
  6.750000e+02   5.499662e-06 
  6.760000e+02   1.937378e-05 
  6.770000e+02   2.192881e-05 
  6.780000e+02   9.929492e-06 
  6.790000e+02   4.802764e-06 
  6.800000e+02   3.270023e-06 
  6.810000e+02   3.496448e-06 
  6.820000e+02   3.705381e-06 
  6.830000e+02   2.867351e-06 
  6.840000e+02   3.224489e-06 
  6.850000e+02   3.596782e-06 
  6.860000e+02   3.541868e-06 
  6.870000e+02   2.583859e-06 
  6.880000e+02   3.388523e-06 
  6.890000e+02   3.674385e-06 
  6.900000e+02   2.861327e-06 
  6.910000e+02   3.254117e-06 
  6.920000e+02   3.211931e-06 
  6.930000e+02   3.307725e-06 
  6.940000e+02   3.165367e-06 
  6.950000e+02   2.590225e-06 
  6.960000e+02   2.896478e-06 
  6.970000e+02   3.923602e-06 
  6.980000e+02   3.423836e-06 
  6.990000e+02   3.657460e-06 
  7.000000e+02   3.956902e-06 
  7.010000e+02   3.642267e-06 
  7.020000e+02   2.477749e-06 
  7.030000e+02   3.508872e-06 
  7.040000e+02   3.190064e-06 
  7.050000e+02   3.154344e-06 
  7.060000e+02   2.945477e-06 
  7.070000e+02   3.130659e-06 
  7.080000e+02   2.736079e-06 
  7.090000e+02   2.724707e-06 
  7.100000e+02   2.503888e-06 
  7.110000e+02   3.097328e-06 
  7.120000e+02   3.011733e-06 
  7.130000e+02   2.650125e-06 
  7.140000e+02   2.799515e-06 
  7.150000e+02   3.048877e-06 
  7.160000e+02   2.853783e-06 
  7.170000e+02   3.051620e-06 
  7.180000e+02   3.022790e-06 
  7.190000e+02   3.446775e-06 
  7.200000e+02   3.627873e-06 
  7.210000e+02   3.404642e-06 
  7.220000e+02   3.176292e-06 
  7.230000e+02   3.767228e-06 
  7.240000e+02   5.703730e-06 
  7.250000e+02   1.015798e-05 
  7.260000e+02   8.206967e-06 
  7.270000e+02   4.497637e-06 
  7.280000e+02   3.568267e-06 
  7.290000e+02   3.537875e-06 
  7.300000e+02   3.318858e-06 
  7.310000e+02   2.959812e-06 
  7.320000e+02   2.931626e-06 
  7.330000e+02   2.940281e-06 
  7.340000e+02   2.962354e-06 
  7.350000e+02   3.347014e-06 
  7.360000e+02   3.058210e-06 
  7.370000e+02   3.092405e-06 
  7.380000e+02   3.125652e-06 
  7.390000e+02   3.157756e-06 
  7.400000e+02   2.949364e-06 
  7.410000e+02   2.894983e-06 
  7.420000e+02   2.924623e-06 
  7.430000e+02   3.146829e-06 
  7.440000e+02   3.282039e-06 
  7.450000e+02   3.325816e-06 
  7.460000e+02   2.885564e-06 
  7.470000e+02   3.218361e-06 
  7.480000e+02   2.988093e-06 
  7.490000e+02   3.418696e-06 
  7.500000e+02   2.586097e-06 
  7.510000e+02   3.305984e-06 
  7.520000e+02   2.533079e-06 
  7.530000e+02   3.634759e-06 
  7.540000e+02   2.983080e-06 
  7.550000e+02   2.899730e-06 
  7.560000e+02   3.552555e-06 
  7.570000e+02   3.163460e-06 
  7.580000e+02   2.703973e-06 
  7.590000e+02   3.239928e-06 
  7.600000e+02   3.403182e-06 
  7.610000e+02   2.676533e-06 
  7.620000e+02   2.830639e-06 
  7.630000e+02   3.263648e-06 
  7.640000e+02   3.026259e-06 
  7.650000e+02   3.126993e-06 
  7.660000e+02   2.446011e-06 
  7.670000e+02   3.510802e-06 
  7.680000e+02   2.746213e-06 
  7.690000e+02   2.843628e-06 
  7.700000e+02   2.175489e-06 
  7.710000e+02   2.605766e-06 
  7.720000e+02   2.948492e-06 
  7.730000e+02   7.437245e-06 
  7.740000e+02   7.436960e-06 
  7.750000e+02   3.350728e-06 
  7.760000e+02   2.884869e-06 
  7.770000e+02   3.023154e-06 
  7.780000e+02   2.418955e-06 
  7.790000e+02   3.330799e-06 
  7.800000e+02   4.084894e-06 
  7.810000e+02   3.527168e-06 
  7.820000e+02   2.798142e-06 
  7.830000e+02   2.744170e-06 
  7.840000e+02   2.762603e-06 
  7.850000e+02   2.556978e-06 
  7.860000e+02   2.663142e-06 
  7.870000e+02   2.545956e-06 
  7.880000e+02   3.299406e-06 
  7.890000e+02   2.436946e-06 
  7.900000e+02   2.743845e-06 
  7.910000e+02   2.822545e-06 
  7.920000e+02   2.349143e-06 
  7.930000e+02   2.384870e-06 
  7.940000e+02   2.286969e-06 
  7.950000e+02   2.300746e-06 
  7.960000e+02   2.816725e-06 
  7.970000e+02   3.364394e-06 
  7.980000e+02   2.417367e-06 
  7.990000e+02   2.290364e-06 
  8.000000e+02   2.884628e-06 
