Input File: 18B.78D
Measure Group: FFT
Measurement: FFT 2
Num of extracted Points: 801
Start Freq: -0 Hz
Span: 800 Hz
FFT Lines:  400 
Window: Uniform
Averaging Mode: RMS
Averaging Type: Linear / Fix Len
Number of Avg:   20
Overload reject: Off

    X[Hz]      Vrms/Hz^(1/... 
  0.000000e+00   4.448661e-05 
  1.000000e+00   2.065733e-05 
  2.000000e+00   9.025394e-06 
  3.000000e+00   1.036533e-05 
  4.000000e+00   5.911998e-06 
  5.000000e+00   6.933051e-06 
  6.000000e+00   5.827614e-06 
  7.000000e+00   4.574162e-06 
  8.000000e+00   4.344540e-06 
  9.000000e+00   5.231608e-06 
  1.000000e+01   4.346248e-06 
  1.100000e+01   3.705289e-06 
  1.200000e+01   3.503503e-06 
  1.300000e+01   3.909507e-06 
  1.400000e+01   3.773599e-06 
  1.500000e+01   3.767085e-06 
  1.600000e+01   3.449463e-06 
  1.700000e+01   3.206523e-06 
  1.800000e+01   3.259658e-06 
  1.900000e+01   3.261959e-06 
  2.000000e+01   3.533933e-06 
  2.100000e+01   3.910774e-06 
  2.200000e+01   3.972597e-06 
  2.300000e+01   2.468363e-06 
  2.400000e+01   3.696871e-06 
  2.500000e+01   3.563914e-06 
  2.600000e+01   3.512987e-06 
  2.700000e+01   3.843327e-06 
  2.800000e+01   3.406055e-06 
  2.900000e+01   3.382479e-06 
  3.000000e+01   3.405713e-06 
  3.100000e+01   3.898243e-06 
  3.200000e+01   2.567783e-06 
  3.300000e+01   3.019655e-06 
  3.400000e+01   2.753909e-06 
  3.500000e+01   3.261134e-06 
  3.600000e+01   3.625318e-06 
  3.700000e+01   3.699181e-06 
  3.800000e+01   3.188126e-06 
  3.900000e+01   2.647774e-06 
  4.000000e+01   2.494548e-06 
  4.100000e+01   3.181843e-06 
  4.200000e+01   3.069258e-06 
  4.300000e+01   2.737857e-06 
  4.400000e+01   2.334267e-06 
  4.500000e+01   2.847497e-06 
  4.600000e+01   2.867423e-06 
  4.700000e+01   2.838496e-06 
  4.800000e+01   2.586741e-06 
  4.900000e+01   2.695937e-06 
  5.000000e+01   1.852569e-06 
  5.100000e+01   3.286663e-06 
  5.200000e+01   2.779981e-06 
  5.300000e+01   2.671050e-06 
  5.400000e+01   3.101466e-06 
  5.500000e+01   2.471043e-06 
  5.600000e+01   2.415765e-06 
  5.700000e+01   3.138542e-06 
  5.800000e+01   2.177742e-06 
  5.900000e+01   2.890135e-06 
  6.000000e+01   5.109001e-06 
  6.100000e+01   2.702331e-06 
  6.200000e+01   2.406308e-06 
  6.300000e+01   2.511540e-06 
  6.400000e+01   2.547823e-06 
  6.500000e+01   2.700432e-06 
  6.600000e+01   2.201766e-06 
  6.700000e+01   2.896084e-06 
  6.800000e+01   2.621105e-06 
  6.900000e+01   2.540844e-06 
  7.000000e+01   2.319480e-06 
  7.100000e+01   2.603029e-06 
  7.200000e+01   2.205875e-06 
  7.300000e+01   2.449592e-06 
  7.400000e+01   2.262847e-06 
  7.500000e+01   2.015679e-06 
  7.600000e+01   2.220138e-06 
  7.700000e+01   2.442278e-06 
  7.800000e+01   2.233035e-06 
  7.900000e+01   2.372365e-06 
  8.000000e+01   2.480925e-06 
  8.100000e+01   1.965977e-06 
  8.200000e+01   2.324206e-06 
  8.300000e+01   2.040728e-06 
  8.400000e+01   1.951643e-06 
  8.500000e+01   1.817041e-06 
  8.600000e+01   2.119696e-06 
  8.700000e+01   2.172144e-06 
  8.800000e+01   2.604669e-06 
  8.900000e+01   2.519448e-06 
  9.000000e+01   1.861763e-06 
  9.100000e+01   2.321969e-06 
  9.200000e+01   1.665219e-06 
  9.300000e+01   2.144415e-06 
  9.400000e+01   1.893593e-06 
  9.500000e+01   1.865594e-06 
  9.600000e+01   2.062517e-06 
  9.700000e+01   1.923464e-06 
  9.800000e+01   2.043636e-06 
  9.900000e+01   1.636981e-06 
  1.000000e+02   1.690691e-06 
  1.010000e+02   1.674352e-06 
  1.020000e+02   1.838661e-06 
  1.030000e+02   2.248994e-06 
  1.040000e+02   1.607158e-06 
  1.050000e+02   1.867562e-06 
  1.060000e+02   1.896400e-06 
  1.070000e+02   1.854767e-06 
  1.080000e+02   1.795486e-06 
  1.090000e+02   2.146655e-06 
  1.100000e+02   2.012808e-06 
  1.110000e+02   1.845408e-06 
  1.120000e+02   1.467681e-06 
  1.130000e+02   1.725762e-06 
  1.140000e+02   2.230324e-06 
  1.150000e+02   1.701585e-06 
  1.160000e+02   1.967038e-06 
  1.170000e+02   1.887309e-06 
  1.180000e+02   1.595491e-06 
  1.190000e+02   1.675704e-06 
  1.200000e+02   1.492968e-06 
  1.210000e+02   1.846885e-06 
  1.220000e+02   1.660699e-06 
  1.230000e+02   1.539089e-06 
  1.240000e+02   2.088283e-06 
  1.250000e+02   1.792824e-06 
  1.260000e+02   1.809248e-06 
  1.270000e+02   1.770150e-06 
  1.280000e+02   1.639329e-06 
  1.290000e+02   1.318463e-06 
  1.300000e+02   1.686635e-06 
  1.310000e+02   1.640607e-06 
  1.320000e+02   1.431383e-06 
  1.330000e+02   1.366056e-06 
  1.340000e+02   1.549939e-06 
  1.350000e+02   1.653285e-06 
  1.360000e+02   1.857840e-06 
  1.370000e+02   1.625579e-06 
  1.380000e+02   1.462611e-06 
  1.390000e+02   1.395206e-06 
  1.400000e+02   1.634321e-06 
  1.410000e+02   1.513091e-06 
  1.420000e+02   1.287472e-06 
  1.430000e+02   1.734571e-06 
  1.440000e+02   1.648647e-06 
  1.450000e+02   1.587905e-06 
  1.460000e+02   1.514035e-06 
  1.470000e+02   1.492505e-06 
  1.480000e+02   1.476794e-06 
  1.490000e+02   1.543394e-06 
  1.500000e+02   1.495748e-06 
  1.510000e+02   1.632354e-06 
  1.520000e+02   1.258884e-06 
  1.530000e+02   1.527621e-06 
  1.540000e+02   1.446159e-06 
  1.550000e+02   1.525502e-06 
  1.560000e+02   1.256286e-06 
  1.570000e+02   1.272874e-06 
  1.580000e+02   1.164753e-06 
  1.590000e+02   1.635612e-06 
  1.600000e+02   1.238360e-06 
  1.610000e+02   1.454921e-06 
  1.620000e+02   1.490916e-06 
  1.630000e+02   1.662099e-06 
  1.640000e+02   1.205392e-06 
  1.650000e+02   1.599370e-06 
  1.660000e+02   1.389618e-06 
  1.670000e+02   1.135662e-06 
  1.680000e+02   1.561443e-06 
  1.690000e+02   1.200533e-06 
  1.700000e+02   1.381086e-06 
  1.710000e+02   1.243249e-06 
  1.720000e+02   1.362979e-06 
  1.730000e+02   1.301728e-06 
  1.740000e+02   1.260650e-06 
  1.750000e+02   1.389752e-06 
  1.760000e+02   1.114116e-06 
  1.770000e+02   1.262488e-06 
  1.780000e+02   1.045509e-06 
  1.790000e+02   1.353000e-06 
  1.800000e+02   1.430683e-06 
  1.810000e+02   1.222304e-06 
  1.820000e+02   1.212189e-06 
  1.830000e+02   1.379539e-06 
  1.840000e+02   1.234425e-06 
  1.850000e+02   1.152179e-06 
  1.860000e+02   1.104853e-06 
  1.870000e+02   1.388570e-06 
  1.880000e+02   1.183771e-06 
  1.890000e+02   1.204753e-06 
  1.900000e+02   9.719893e-07 
  1.910000e+02   1.537428e-06 
  1.920000e+02   1.195377e-06 
  1.930000e+02   1.326061e-06 
  1.940000e+02   1.118190e-06 
  1.950000e+02   1.031294e-06 
  1.960000e+02   1.228032e-06 
  1.970000e+02   1.008377e-06 
  1.980000e+02   1.031176e-06 
  1.990000e+02   1.257918e-06 
  2.000000e+02   1.263850e-06 
  2.010000e+02   1.281669e-06 
  2.020000e+02   1.162196e-06 
  2.030000e+02   1.200292e-06 
  2.040000e+02   9.229895e-07 
  2.050000e+02   1.267734e-06 
  2.060000e+02   8.837770e-07 
  2.070000e+02   9.494926e-07 
  2.080000e+02   1.301706e-06 
  2.090000e+02   1.131387e-06 
  2.100000e+02   1.054987e-06 
  2.110000e+02   1.113708e-06 
  2.120000e+02   1.217579e-06 
  2.130000e+02   9.731526e-07 
  2.140000e+02   1.158196e-06 
  2.150000e+02   8.274565e-07 
  2.160000e+02   1.229001e-06 
  2.170000e+02   1.034329e-06 
  2.180000e+02   9.416461e-07 
  2.190000e+02   1.124712e-06 
  2.200000e+02   1.146693e-06 
  2.210000e+02   1.011503e-06 
  2.220000e+02   1.033059e-06 
  2.230000e+02   9.694180e-07 
  2.240000e+02   1.063553e-06 
  2.250000e+02   9.471808e-07 
  2.260000e+02   8.295693e-07 
  2.270000e+02   8.667110e-07 
  2.280000e+02   8.919093e-07 
  2.290000e+02   9.010544e-07 
  2.300000e+02   1.029175e-06 
  2.310000e+02   1.131628e-06 
  2.320000e+02   9.916007e-07 
  2.330000e+02   1.048054e-06 
  2.340000e+02   8.465939e-07 
  2.350000e+02   1.035063e-06 
  2.360000e+02   1.004246e-06 
  2.370000e+02   9.915257e-07 
  2.380000e+02   1.120348e-06 
  2.390000e+02   8.973676e-07 
  2.400000e+02   1.013917e-06 
  2.410000e+02   9.702347e-07 
  2.420000e+02   9.203036e-07 
  2.430000e+02   9.369307e-07 
  2.440000e+02   1.103847e-06 
  2.450000e+02   8.956499e-07 
  2.460000e+02   9.300664e-07 
  2.470000e+02   9.413230e-07 
  2.480000e+02   9.956884e-07 
  2.490000e+02   7.823211e-07 
  2.500000e+02   9.168618e-07 
  2.510000e+02   1.011544e-06 
  2.520000e+02   1.033683e-06 
  2.530000e+02   9.618275e-07 
  2.540000e+02   1.136539e-06 
  2.550000e+02   8.233766e-07 
  2.560000e+02   8.543860e-07 
  2.570000e+02   9.210175e-07 
  2.580000e+02   1.017794e-06 
  2.590000e+02   9.785524e-07 
  2.600000e+02   7.448299e-07 
  2.610000e+02   9.395523e-07 
  2.620000e+02   7.869916e-07 
  2.630000e+02   8.820338e-07 
  2.640000e+02   8.916448e-07 
  2.650000e+02   9.457073e-07 
  2.660000e+02   1.033713e-06 
  2.670000e+02   8.257240e-07 
  2.680000e+02   8.671398e-07 
  2.690000e+02   7.259842e-07 
  2.700000e+02   1.050547e-06 
  2.710000e+02   7.503007e-07 
  2.720000e+02   9.248403e-07 
  2.730000e+02   7.958458e-07 
  2.740000e+02   7.896132e-07 
  2.750000e+02   1.029476e-06 
  2.760000e+02   9.784660e-07 
  2.770000e+02   8.354352e-07 
  2.780000e+02   8.997932e-07 
  2.790000e+02   7.213934e-07 
  2.800000e+02   7.010817e-07 
  2.810000e+02   6.340135e-07 
  2.820000e+02   1.023434e-06 
  2.830000e+02   9.093612e-07 
  2.840000e+02   8.516690e-07 
  2.850000e+02   8.632594e-07 
  2.860000e+02   7.086467e-07 
  2.870000e+02   7.122586e-07 
  2.880000e+02   6.834380e-07 
  2.890000e+02   7.753776e-07 
  2.900000e+02   7.954476e-07 
  2.910000e+02   7.058256e-07 
  2.920000e+02   9.026206e-07 
  2.930000e+02   7.340000e-07 
  2.940000e+02   7.445024e-07 
  2.950000e+02   7.660696e-07 
  2.960000e+02   9.216391e-07 
  2.970000e+02   8.729875e-07 
  2.980000e+02   8.719506e-07 
  2.990000e+02   8.541417e-07 
  3.000000e+02   7.590061e-07 
  3.010000e+02   8.994099e-07 
  3.020000e+02   8.895083e-07 
  3.030000e+02   8.727222e-07 
  3.040000e+02   6.834118e-07 
  3.050000e+02   7.322541e-07 
  3.060000e+02   8.024370e-07 
  3.070000e+02   7.067965e-07 
  3.080000e+02   7.224047e-07 
  3.090000e+02   6.690198e-07 
  3.100000e+02   8.133223e-07 
  3.110000e+02   8.665609e-07 
  3.120000e+02   7.656303e-07 
  3.130000e+02   6.691511e-07 
  3.140000e+02   7.070301e-07 
  3.150000e+02   6.991402e-07 
  3.160000e+02   6.834256e-07 
  3.170000e+02   5.204682e-07 
  3.180000e+02   6.559192e-07 
  3.190000e+02   6.502997e-07 
  3.200000e+02   7.917109e-07 
  3.210000e+02   8.131574e-07 
  3.220000e+02   5.721622e-07 
  3.230000e+02   7.324296e-07 
  3.240000e+02   7.345232e-07 
  3.250000e+02   7.201516e-07 
  3.260000e+02   8.247159e-07 
  3.270000e+02   6.605299e-07 
  3.280000e+02   6.139454e-07 
  3.290000e+02   5.985314e-07 
  3.300000e+02   6.789743e-07 
  3.310000e+02   7.383827e-07 
  3.320000e+02   6.978468e-07 
  3.330000e+02   5.380239e-07 
  3.340000e+02   6.442390e-07 
  3.350000e+02   6.647944e-07 
  3.360000e+02   7.213745e-07 
  3.370000e+02   8.262771e-07 
  3.380000e+02   6.872996e-07 
  3.390000e+02   6.401485e-07 
  3.400000e+02   5.768709e-07 
  3.410000e+02   6.838758e-07 
  3.420000e+02   5.370508e-07 
  3.430000e+02   7.560702e-07 
  3.440000e+02   6.896929e-07 
  3.450000e+02   7.155637e-07 
  3.460000e+02   6.551982e-07 
  3.470000e+02   6.619989e-07 
  3.480000e+02   5.834678e-07 
  3.490000e+02   7.143486e-07 
  3.500000e+02   7.252700e-07 
  3.510000e+02   7.620166e-07 
  3.520000e+02   6.760793e-07 
  3.530000e+02   6.359863e-07 
  3.540000e+02   5.107070e-07 
  3.550000e+02   7.231974e-07 
  3.560000e+02   6.895979e-07 
  3.570000e+02   6.172974e-07 
  3.580000e+02   6.398021e-07 
  3.590000e+02   7.155247e-07 
  3.600000e+02   5.782932e-07 
  3.610000e+02   6.685524e-07 
  3.620000e+02   8.187503e-07 
  3.630000e+02   6.348177e-07 
  3.640000e+02   7.242946e-07 
  3.650000e+02   6.503965e-07 
  3.660000e+02   7.482208e-07 
  3.670000e+02   5.961562e-07 
  3.680000e+02   6.770986e-07 
  3.690000e+02   5.742493e-07 
  3.700000e+02   6.665704e-07 
  3.710000e+02   5.787510e-07 
  3.720000e+02   6.756787e-07 
  3.730000e+02   6.957775e-07 
  3.740000e+02   6.403955e-07 
  3.750000e+02   6.228714e-07 
  3.760000e+02   6.366212e-07 
  3.770000e+02   5.512505e-07 
  3.780000e+02   7.019287e-07 
  3.790000e+02   5.938793e-07 
  3.800000e+02   7.339203e-07 
  3.810000e+02   6.863601e-07 
  3.820000e+02   5.500546e-07 
  3.830000e+02   5.202295e-07 
  3.840000e+02   6.476131e-07 
  3.850000e+02   6.454026e-07 
  3.860000e+02   5.578363e-07 
  3.870000e+02   5.353911e-07 
  3.880000e+02   5.967954e-07 
  3.890000e+02   5.215115e-07 
  3.900000e+02   5.936107e-07 
  3.910000e+02   6.055288e-07 
  3.920000e+02   5.955674e-07 
  3.930000e+02   5.726779e-07 
  3.940000e+02   5.935832e-07 
  3.950000e+02   4.922402e-07 
  3.960000e+02   6.493569e-07 
  3.970000e+02   5.406578e-07 
  3.980000e+02   6.631289e-07 
  3.990000e+02   6.144300e-07 
  4.000000e+02   6.461148e-07 
  4.010000e+02   5.622326e-07 
  4.020000e+02   5.424384e-07 
  4.030000e+02   6.369896e-07 
  4.040000e+02   5.897581e-07 
  4.050000e+02   6.359753e-07 
  4.060000e+02   4.913502e-07 
  4.070000e+02   5.604082e-07 
  4.080000e+02   5.019607e-07 
  4.090000e+02   6.109460e-07 
  4.100000e+02   5.523508e-07 
  4.110000e+02   6.060239e-07 
  4.120000e+02   5.758770e-07 
  4.130000e+02   6.799711e-07 
  4.140000e+02   6.590074e-07 
  4.150000e+02   5.569867e-07 
  4.160000e+02   7.121996e-07 
  4.170000e+02   5.433125e-07 
  4.180000e+02   5.447002e-07 
  4.190000e+02   5.610819e-07 
  4.200000e+02   5.216437e-07 
  4.210000e+02   5.291218e-07 
  4.220000e+02   6.462475e-07 
  4.230000e+02   4.332154e-07 
  4.240000e+02   5.354825e-07 
  4.250000e+02   5.559645e-07 
  4.260000e+02   5.376397e-07 
  4.270000e+02   5.988325e-07 
  4.280000e+02   4.734827e-07 
  4.290000e+02   5.617608e-07 
  4.300000e+02   4.896230e-07 
  4.310000e+02   4.645480e-07 
  4.320000e+02   5.187825e-07 
  4.330000e+02   6.119319e-07 
  4.340000e+02   6.112689e-07 
  4.350000e+02   5.049386e-07 
  4.360000e+02   5.049750e-07 
  4.370000e+02   5.640731e-07 
  4.380000e+02   6.181921e-07 
  4.390000e+02   4.577475e-07 
  4.400000e+02   5.766305e-07 
  4.410000e+02   5.160326e-07 
  4.420000e+02   4.733014e-07 
  4.430000e+02   4.722789e-07 
  4.440000e+02   4.075382e-07 
  4.450000e+02   4.859991e-07 
  4.460000e+02   4.367150e-07 
  4.470000e+02   5.779521e-07 
  4.480000e+02   5.208976e-07 
  4.490000e+02   5.622813e-07 
  4.500000e+02   6.055300e-07 
  4.510000e+02   5.721814e-07 
  4.520000e+02   5.210348e-07 
  4.530000e+02   4.642788e-07 
  4.540000e+02   4.861981e-07 
  4.550000e+02   5.716743e-07 
  4.560000e+02   5.686426e-07 
  4.570000e+02   6.337777e-07 
  4.580000e+02   4.767598e-07 
  4.590000e+02   5.370645e-07 
  4.600000e+02   6.306181e-07 
  4.610000e+02   4.191972e-07 
  4.620000e+02   5.429625e-07 
  4.630000e+02   5.262176e-07 
  4.640000e+02   4.866112e-07 
  4.650000e+02   4.406009e-07 
  4.660000e+02   5.701600e-07 
  4.670000e+02   5.810006e-07 
  4.680000e+02   3.771071e-07 
  4.690000e+02   5.097027e-07 
  4.700000e+02   5.711459e-07 
  4.710000e+02   4.571030e-07 
  4.720000e+02   5.355488e-07 
  4.730000e+02   5.867495e-07 
  4.740000e+02   5.660931e-07 
  4.750000e+02   4.952830e-07 
  4.760000e+02   5.016100e-07 
  4.770000e+02   4.227676e-07 
  4.780000e+02   6.040330e-07 
  4.790000e+02   4.672576e-07 
  4.800000e+02   3.795928e-07 
  4.810000e+02   4.573296e-07 
  4.820000e+02   5.494202e-07 
  4.830000e+02   5.456714e-07 
  4.840000e+02   3.857327e-07 
  4.850000e+02   5.413442e-07 
  4.860000e+02   4.930099e-07 
  4.870000e+02   4.603868e-07 
  4.880000e+02   4.179293e-07 
  4.890000e+02   4.396771e-07 
  4.900000e+02   4.895826e-07 
  4.910000e+02   4.167325e-07 
  4.920000e+02   4.569841e-07 
  4.930000e+02   4.262809e-07 
  4.940000e+02   5.118779e-07 
  4.950000e+02   4.275223e-07 
  4.960000e+02   5.080838e-07 
  4.970000e+02   3.944792e-07 
  4.980000e+02   6.018759e-07 
  4.990000e+02   5.079082e-07 
  5.000000e+02   4.206383e-07 
  5.010000e+02   4.320774e-07 
  5.020000e+02   5.432451e-07 
  5.030000e+02   4.904704e-07 
  5.040000e+02   4.857891e-07 
  5.050000e+02   5.180432e-07 
  5.060000e+02   5.249010e-07 
  5.070000e+02   4.231667e-07 
  5.080000e+02   4.936933e-07 
  5.090000e+02   4.602296e-07 
  5.100000e+02   5.156884e-07 
  5.110000e+02   4.899317e-07 
  5.120000e+02   4.946650e-07 
  5.130000e+02   4.554590e-07 
  5.140000e+02   4.715008e-07 
  5.150000e+02   4.328219e-07 
  5.160000e+02   5.295194e-07 
  5.170000e+02   4.823903e-07 
  5.180000e+02   5.842386e-07 
  5.190000e+02   3.549713e-07 
  5.200000e+02   5.972057e-07 
  5.210000e+02   5.173655e-07 
  5.220000e+02   4.376227e-07 
  5.230000e+02   5.315648e-07 
  5.240000e+02   4.308624e-07 
  5.250000e+02   4.220639e-07 
  5.260000e+02   5.169199e-07 
  5.270000e+02   4.535355e-07 
  5.280000e+02   4.298870e-07 
  5.290000e+02   4.036615e-07 
  5.300000e+02   5.234474e-07 
  5.310000e+02   4.518061e-07 
  5.320000e+02   4.680511e-07 
  5.330000e+02   4.426194e-07 
  5.340000e+02   4.446625e-07 
  5.350000e+02   4.806032e-07 
  5.360000e+02   4.700452e-07 
  5.370000e+02   3.483622e-07 
  5.380000e+02   3.807958e-07 
  5.390000e+02   5.505835e-07 
  5.400000e+02   3.114129e-07 
  5.410000e+02   3.584069e-07 
  5.420000e+02   4.054977e-07 
  5.430000e+02   3.694845e-07 
  5.440000e+02   5.503868e-07 
  5.450000e+02   5.007258e-07 
  5.460000e+02   3.740362e-07 
  5.470000e+02   4.257850e-07 
  5.480000e+02   4.768959e-07 
  5.490000e+02   4.767646e-07 
  5.500000e+02   5.008979e-07 
  5.510000e+02   3.484948e-07 
  5.520000e+02   3.989346e-07 
  5.530000e+02   4.315358e-07 
  5.540000e+02   3.578830e-07 
  5.550000e+02   4.310003e-07 
  5.560000e+02   4.063160e-07 
  5.570000e+02   4.316284e-07 
  5.580000e+02   4.071355e-07 
  5.590000e+02   3.778131e-07 
  5.600000e+02   4.442541e-07 
  5.610000e+02   4.084289e-07 
  5.620000e+02   3.302030e-07 
  5.630000e+02   3.678516e-07 
  5.640000e+02   4.151835e-07 
  5.650000e+02   4.194529e-07 
  5.660000e+02   3.671963e-07 
  5.670000e+02   4.135313e-07 
  5.680000e+02   5.121926e-07 
  5.690000e+02   4.543292e-07 
  5.700000e+02   3.853383e-07 
  5.710000e+02   3.893220e-07 
  5.720000e+02   3.426577e-07 
  5.730000e+02   4.595053e-07 
  5.740000e+02   3.929677e-07 
  5.750000e+02   3.638634e-07 
  5.760000e+02   3.766404e-07 
  5.770000e+02   3.418837e-07 
  5.780000e+02   3.765979e-07 
  5.790000e+02   3.944712e-07 
  5.800000e+02   3.781097e-07 
  5.810000e+02   4.095324e-07 
  5.820000e+02   4.136889e-07 
  5.830000e+02   4.314402e-07 
  5.840000e+02   4.224383e-07 
  5.850000e+02   5.020614e-07 
  5.860000e+02   6.107828e-07 
  5.870000e+02   5.362599e-07 
  5.880000e+02   5.381707e-07 
  5.890000e+02   5.452430e-07 
  5.900000e+02   3.706359e-07 
  5.910000e+02   3.864962e-07 
  5.920000e+02   4.444432e-07 
  5.930000e+02   4.404472e-07 
  5.940000e+02   4.631428e-07 
  5.950000e+02   3.383107e-07 
  5.960000e+02   3.688698e-07 
  5.970000e+02   3.413018e-07 
  5.980000e+02   4.015751e-07 
  5.990000e+02   4.604037e-07 
  6.000000e+02   3.857756e-07 
  6.010000e+02   3.494358e-07 
  6.020000e+02   3.751654e-07 
  6.030000e+02   2.951375e-07 
  6.040000e+02   3.870205e-07 
  6.050000e+02   4.287252e-07 
  6.060000e+02   3.975243e-07 
  6.070000e+02   3.954721e-07 
  6.080000e+02   4.345283e-07 
  6.090000e+02   3.402524e-07 
  6.100000e+02   4.073038e-07 
  6.110000e+02   3.911305e-07 
  6.120000e+02   2.801613e-07 
  6.130000e+02   3.110721e-07 
  6.140000e+02   4.162870e-07 
  6.150000e+02   4.056028e-07 
  6.160000e+02   2.953030e-07 
  6.170000e+02   4.008498e-07 
  6.180000e+02   3.899443e-07 
  6.190000e+02   3.695953e-07 
  6.200000e+02   3.518777e-07 
  6.210000e+02   2.916201e-07 
  6.220000e+02   4.435984e-07 
  6.230000e+02   3.908630e-07 
  6.240000e+02   2.972754e-07 
  6.250000e+02   3.898123e-07 
  6.260000e+02   4.055205e-07 
  6.270000e+02   3.668659e-07 
  6.280000e+02   3.488241e-07 
  6.290000e+02   3.282720e-07 
  6.300000e+02   2.869566e-07 
  6.310000e+02   4.076480e-07 
  6.320000e+02   3.177744e-07 
  6.330000e+02   3.328322e-07 
  6.340000e+02   4.665356e-07 
  6.350000e+02   4.000000e-07 
  6.360000e+02   4.068584e-07 
  6.370000e+02   3.075910e-07 
  6.380000e+02   3.568512e-07 
  6.390000e+02   3.689493e-07 
  6.400000e+02   3.829085e-07 
  6.410000e+02   3.797593e-07 
  6.420000e+02   3.394054e-07 
  6.430000e+02   4.611875e-07 
  6.440000e+02   3.543737e-07 
  6.450000e+02   3.249594e-07 
  6.460000e+02   3.228114e-07 
  6.470000e+02   2.973923e-07 
  6.480000e+02   2.669784e-07 
  6.490000e+02   3.219002e-07 
  6.500000e+02   3.354948e-07 
  6.510000e+02   3.455210e-07 
  6.520000e+02   3.129742e-07 
  6.530000e+02   3.804004e-07 
  6.540000e+02   3.145695e-07 
  6.550000e+02   2.637939e-07 
  6.560000e+02   2.699975e-07 
  6.570000e+02   3.744943e-07 
  6.580000e+02   3.287358e-07 
  6.590000e+02   2.800020e-07 
  6.600000e+02   2.660800e-07 
  6.610000e+02   3.076922e-07 
  6.620000e+02   3.406147e-07 
  6.630000e+02   4.468540e-07 
  6.640000e+02   3.285786e-07 
  6.650000e+02   4.348993e-07 
  6.660000e+02   3.057517e-07 
  6.670000e+02   3.640932e-07 
  6.680000e+02   3.846756e-07 
  6.690000e+02   3.841481e-07 
  6.700000e+02   3.182583e-07 
  6.710000e+02   3.580194e-07 
  6.720000e+02   3.645608e-07 
  6.730000e+02   3.326337e-07 
  6.740000e+02   3.639822e-07 
  6.750000e+02   2.988437e-07 
  6.760000e+02   2.721949e-07 
  6.770000e+02   2.931137e-07 
  6.780000e+02   3.389428e-07 
  6.790000e+02   3.763038e-07 
  6.800000e+02   2.936241e-07 
  6.810000e+02   3.332846e-07 
  6.820000e+02   3.980584e-07 
  6.830000e+02   2.997986e-07 
  6.840000e+02   2.929448e-07 
  6.850000e+02   3.408555e-07 
  6.860000e+02   2.956311e-07 
  6.870000e+02   3.835955e-07 
  6.880000e+02   3.168358e-07 
  6.890000e+02   2.570561e-07 
  6.900000e+02   3.175536e-07 
  6.910000e+02   3.289420e-07 
  6.920000e+02   2.931291e-07 
  6.930000e+02   3.645240e-07 
  6.940000e+02   3.143525e-07 
  6.950000e+02   2.588876e-07 
  6.960000e+02   2.530598e-07 
  6.970000e+02   3.307102e-07 
  6.980000e+02   3.263216e-07 
  6.990000e+02   2.877534e-07 
  7.000000e+02   2.885721e-07 
  7.010000e+02   3.365987e-07 
  7.020000e+02   2.699872e-07 
  7.030000e+02   3.667300e-07 
  7.040000e+02   2.972415e-07 
  7.050000e+02   3.214261e-07 
  7.060000e+02   3.370698e-07 
  7.070000e+02   2.686219e-07 
  7.080000e+02   3.140474e-07 
  7.090000e+02   3.632499e-07 
  7.100000e+02   2.780093e-07 
  7.110000e+02   2.974216e-07 
  7.120000e+02   3.109251e-07 
  7.130000e+02   3.300489e-07 
  7.140000e+02   2.836290e-07 
  7.150000e+02   3.277939e-07 
  7.160000e+02   3.130160e-07 
  7.170000e+02   2.816252e-07 
  7.180000e+02   3.344029e-07 
  7.190000e+02   2.754494e-07 
  7.200000e+02   2.978092e-07 
  7.210000e+02   2.764852e-07 
  7.220000e+02   2.896827e-07 
  7.230000e+02   2.666743e-07 
  7.240000e+02   3.328153e-07 
  7.250000e+02   2.702958e-07 
  7.260000e+02   3.134959e-07 
  7.270000e+02   2.745999e-07 
  7.280000e+02   3.766254e-07 
  7.290000e+02   3.356082e-07 
  7.300000e+02   3.502164e-07 
  7.310000e+02   3.185813e-07 
  7.320000e+02   3.518952e-07 
  7.330000e+02   2.754284e-07 
  7.340000e+02   3.019327e-07 
  7.350000e+02   2.117927e-07 
  7.360000e+02   3.179699e-07 
  7.370000e+02   3.056993e-07 
  7.380000e+02   2.819054e-07 
  7.390000e+02   3.332069e-07 
  7.400000e+02   2.916351e-07 
  7.410000e+02   3.444030e-07 
  7.420000e+02   2.907198e-07 
  7.430000e+02   2.750915e-07 
  7.440000e+02   2.984275e-07 
  7.450000e+02   2.815818e-07 
  7.460000e+02   3.153203e-07 
  7.470000e+02   2.324596e-07 
  7.480000e+02   3.216863e-07 
  7.490000e+02   3.762739e-07 
  7.500000e+02   2.937527e-07 
  7.510000e+02   3.041829e-07 
  7.520000e+02   3.234468e-07 
  7.530000e+02   3.592739e-07 
  7.540000e+02   2.495905e-07 
  7.550000e+02   2.969929e-07 
  7.560000e+02   3.203012e-07 
  7.570000e+02   3.242323e-07 
  7.580000e+02   3.195299e-07 
  7.590000e+02   3.241085e-07 
  7.600000e+02   2.395927e-07 
  7.610000e+02   2.859273e-07 
  7.620000e+02   3.048909e-07 
  7.630000e+02   3.119665e-07 
  7.640000e+02   2.996017e-07 
  7.650000e+02   3.131547e-07 
  7.660000e+02   3.559170e-07 
  7.670000e+02   2.649206e-07 
  7.680000e+02   2.642287e-07 
  7.690000e+02   3.278616e-07 
  7.700000e+02   3.043251e-07 
  7.710000e+02   3.129154e-07 
  7.720000e+02   3.139708e-07 
  7.730000e+02   2.716311e-07 
  7.740000e+02   2.551525e-07 
  7.750000e+02   2.882522e-07 
  7.760000e+02   3.303207e-07 
  7.770000e+02   2.850905e-07 
  7.780000e+02   2.800145e-07 
  7.790000e+02   2.354509e-07 
  7.800000e+02   2.439787e-07 
  7.810000e+02   3.065120e-07 
  7.820000e+02   3.068676e-07 
  7.830000e+02   2.642371e-07 
  7.840000e+02   2.548707e-07 
  7.850000e+02   2.928217e-07 
  7.860000e+02   3.061868e-07 
  7.870000e+02   2.790713e-07 
  7.880000e+02   2.676519e-07 
  7.890000e+02   2.743670e-07 
  7.900000e+02   3.378148e-07 
  7.910000e+02   2.932775e-07 
  7.920000e+02   3.002146e-07 
  7.930000e+02   2.899640e-07 
  7.940000e+02   3.018919e-07 
  7.950000e+02   2.787320e-07 
  7.960000e+02   2.603351e-07 
  7.970000e+02   2.327833e-07 
  7.980000e+02   2.880201e-07 
  7.990000e+02   2.101546e-07 
  8.000000e+02   2.822341e-07 
