Input File: 200B.78D
Measure Group: FFT
Measurement: FFT 2
Num of extracted Points: 801
Start Freq: -0 Hz
Span: 800 Hz
FFT Lines:  400 
Window: Uniform
Averaging Mode: RMS
Averaging Type: Linear / Fix Len
Number of Avg:   20
Overload reject: Off

    X[Hz]      Vrms/Hz^(1/... 
  0.000000e+00   2.311398e-03 
  1.000000e+00   4.783012e-05 
  2.000000e+00   6.450592e-05 
  3.000000e+00   3.675638e-05 
  4.000000e+00   3.063479e-05 
  5.000000e+00   2.139471e-05 
  6.000000e+00   1.685989e-05 
  7.000000e+00   1.467558e-05 
  8.000000e+00   1.252468e-05 
  9.000000e+00   1.106668e-05 
  1.000000e+01   9.595406e-06 
  1.100000e+01   7.897608e-06 
  1.200000e+01   8.983765e-06 
  1.300000e+01   6.590428e-06 
  1.400000e+01   7.090943e-06 
  1.500000e+01   5.698919e-06 
  1.600000e+01   5.965231e-06 
  1.700000e+01   5.692759e-06 
  1.800000e+01   5.704852e-06 
  1.900000e+01   4.143896e-06 
  2.000000e+01   4.961381e-06 
  2.100000e+01   5.036219e-06 
  2.200000e+01   4.354657e-06 
  2.300000e+01   4.212493e-06 
  2.400000e+01   4.095895e-06 
  2.500000e+01   3.801509e-06 
  2.600000e+01   4.644753e-06 
  2.700000e+01   3.382838e-06 
  2.800000e+01   3.435285e-06 
  2.900000e+01   3.228271e-06 
  3.000000e+01   3.705555e-06 
  3.100000e+01   3.145893e-06 
  3.200000e+01   3.136282e-06 
  3.300000e+01   2.597092e-06 
  3.400000e+01   2.720568e-06 
  3.500000e+01   3.399237e-06 
  3.600000e+01   2.528903e-06 
  3.700000e+01   3.001814e-06 
  3.800000e+01   2.505237e-06 
  3.900000e+01   2.885783e-06 
  4.000000e+01   3.144974e-06 
  4.100000e+01   2.510227e-06 
  4.200000e+01   2.671661e-06 
  4.300000e+01   2.416977e-06 
  4.400000e+01   2.450957e-06 
  4.500000e+01   3.118647e-06 
  4.600000e+01   2.834672e-06 
  4.700000e+01   2.546220e-06 
  4.800000e+01   2.646362e-06 
  4.900000e+01   2.278832e-06 
  5.000000e+01   2.705279e-06 
  5.100000e+01   2.632461e-06 
  5.200000e+01   1.847400e-06 
  5.300000e+01   1.896855e-06 
  5.400000e+01   2.514977e-06 
  5.500000e+01   2.330037e-06 
  5.600000e+01   2.789862e-06 
  5.700000e+01   2.810506e-06 
  5.800000e+01   2.161930e-06 
  5.900000e+01   2.311949e-06 
  6.000000e+01   4.684069e-06 
  6.100000e+01   2.450397e-06 
  6.200000e+01   2.197972e-06 
  6.300000e+01   2.177532e-06 
  6.400000e+01   1.997597e-06 
  6.500000e+01   2.063501e-06 
  6.600000e+01   2.468259e-06 
  6.700000e+01   1.984631e-06 
  6.800000e+01   2.052934e-06 
  6.900000e+01   2.298392e-06 
  7.000000e+01   2.290124e-06 
  7.100000e+01   1.848664e-06 
  7.200000e+01   1.991680e-06 
  7.300000e+01   2.038136e-06 
  7.400000e+01   2.236827e-06 
  7.500000e+01   1.893906e-06 
  7.600000e+01   1.996876e-06 
  7.700000e+01   2.192827e-06 
  7.800000e+01   1.640881e-06 
  7.900000e+01   1.729254e-06 
  8.000000e+01   1.988651e-06 
  8.100000e+01   2.033606e-06 
  8.200000e+01   2.229483e-06 
  8.300000e+01   1.555752e-06 
  8.400000e+01   1.992051e-06 
  8.500000e+01   1.685424e-06 
  8.600000e+01   1.814988e-06 
  8.700000e+01   1.626782e-06 
  8.800000e+01   1.805095e-06 
  8.900000e+01   1.951921e-06 
  9.000000e+01   2.125814e-06 
  9.100000e+01   1.910121e-06 
  9.200000e+01   1.994810e-06 
  9.300000e+01   1.855524e-06 
  9.400000e+01   1.702914e-06 
  9.500000e+01   1.785977e-06 
  9.600000e+01   1.665764e-06 
  9.700000e+01   1.816864e-06 
  9.800000e+01   1.879879e-06 
  9.900000e+01   1.742466e-06 
  1.000000e+02   1.409883e-06 
  1.010000e+02   1.564866e-06 
  1.020000e+02   1.709278e-06 
  1.030000e+02   1.887236e-06 
  1.040000e+02   1.878442e-06 
  1.050000e+02   1.753597e-06 
  1.060000e+02   1.540237e-06 
  1.070000e+02   1.619813e-06 
  1.080000e+02   1.516372e-06 
  1.090000e+02   1.650393e-06 
  1.100000e+02   1.842992e-06 
  1.110000e+02   1.523233e-06 
  1.120000e+02   1.469997e-06 
  1.130000e+02   1.451215e-06 
  1.140000e+02   1.625385e-06 
  1.150000e+02   1.560736e-06 
  1.160000e+02   1.611272e-06 
  1.170000e+02   1.853017e-06 
  1.180000e+02   1.609871e-06 
  1.190000e+02   1.488990e-06 
  1.200000e+02   1.848726e-06 
  1.210000e+02   1.374931e-06 
  1.220000e+02   1.604910e-06 
  1.230000e+02   1.370403e-06 
  1.240000e+02   1.374381e-06 
  1.250000e+02   1.791007e-06 
  1.260000e+02   1.572606e-06 
  1.270000e+02   1.586958e-06 
  1.280000e+02   1.493851e-06 
  1.290000e+02   1.456420e-06 
  1.300000e+02   1.472102e-06 
  1.310000e+02   1.439006e-06 
  1.320000e+02   1.401600e-06 
  1.330000e+02   1.388470e-06 
  1.340000e+02   1.431273e-06 
  1.350000e+02   1.170784e-06 
  1.360000e+02   1.338969e-06 
  1.370000e+02   1.400446e-06 
  1.380000e+02   1.366522e-06 
  1.390000e+02   1.496735e-06 
  1.400000e+02   1.233713e-06 
  1.410000e+02   1.272660e-06 
  1.420000e+02   1.188079e-06 
  1.430000e+02   1.444534e-06 
  1.440000e+02   1.298304e-06 
  1.450000e+02   1.433469e-06 
  1.460000e+02   1.528773e-06 
  1.470000e+02   1.539712e-06 
  1.480000e+02   1.282125e-06 
  1.490000e+02   1.390072e-06 
  1.500000e+02   1.555710e-06 
  1.510000e+02   1.441350e-06 
  1.520000e+02   1.282384e-06 
  1.530000e+02   1.201435e-06 
  1.540000e+02   1.460539e-06 
  1.550000e+02   1.331102e-06 
  1.560000e+02   1.311655e-06 
  1.570000e+02   1.266733e-06 
  1.580000e+02   1.341927e-06 
  1.590000e+02   1.188358e-06 
  1.600000e+02   9.633985e-07 
  1.610000e+02   1.386485e-06 
  1.620000e+02   1.583705e-06 
  1.630000e+02   1.045792e-06 
  1.640000e+02   1.108790e-06 
  1.650000e+02   1.575852e-06 
  1.660000e+02   1.402909e-06 
  1.670000e+02   1.077002e-06 
  1.680000e+02   1.141229e-06 
  1.690000e+02   9.555972e-07 
  1.700000e+02   1.154219e-06 
  1.710000e+02   1.288456e-06 
  1.720000e+02   1.243093e-06 
  1.730000e+02   1.041684e-06 
  1.740000e+02   1.125323e-06 
  1.750000e+02   1.298026e-06 
  1.760000e+02   1.272246e-06 
  1.770000e+02   1.100740e-06 
  1.780000e+02   1.063621e-06 
  1.790000e+02   1.100071e-06 
  1.800000e+02   1.394603e-06 
  1.810000e+02   1.076128e-06 
  1.820000e+02   1.269698e-06 
  1.830000e+02   1.248095e-06 
  1.840000e+02   1.209675e-06 
  1.850000e+02   1.096252e-06 
  1.860000e+02   1.109874e-06 
  1.870000e+02   1.101085e-06 
  1.880000e+02   1.011004e-06 
  1.890000e+02   9.229112e-07 
  1.900000e+02   8.723758e-07 
  1.910000e+02   1.055748e-06 
  1.920000e+02   1.103548e-06 
  1.930000e+02   1.005341e-06 
  1.940000e+02   1.017813e-06 
  1.950000e+02   9.674696e-07 
  1.960000e+02   1.254435e-06 
  1.970000e+02   1.121854e-06 
  1.980000e+02   1.094333e-06 
  1.990000e+02   1.044252e-06 
  2.000000e+02   1.137031e-06 
  2.010000e+02   1.029789e-06 
  2.020000e+02   1.144724e-06 
  2.030000e+02   1.040514e-06 
  2.040000e+02   8.869118e-07 
  2.050000e+02   1.066383e-06 
  2.060000e+02   9.672019e-07 
  2.070000e+02   1.181918e-06 
  2.080000e+02   1.061796e-06 
  2.090000e+02   8.323535e-07 
  2.100000e+02   1.045418e-06 
  2.110000e+02   9.819556e-07 
  2.120000e+02   9.508646e-07 
  2.130000e+02   9.666542e-07 
  2.140000e+02   9.497836e-07 
  2.150000e+02   1.012381e-06 
  2.160000e+02   1.063882e-06 
  2.170000e+02   9.768139e-07 
  2.180000e+02   1.075667e-06 
  2.190000e+02   1.071421e-06 
  2.200000e+02   9.600956e-07 
  2.210000e+02   1.026244e-06 
  2.220000e+02   9.904862e-07 
  2.230000e+02   8.189249e-07 
  2.240000e+02   9.838544e-07 
  2.250000e+02   1.003196e-06 
  2.260000e+02   9.505007e-07 
  2.270000e+02   1.027318e-06 
  2.280000e+02   9.872361e-07 
  2.290000e+02   9.823367e-07 
  2.300000e+02   9.283183e-07 
  2.310000e+02   9.356615e-07 
  2.320000e+02   8.245886e-07 
  2.330000e+02   8.614124e-07 
  2.340000e+02   7.503305e-07 
  2.350000e+02   9.604181e-07 
  2.360000e+02   1.046830e-06 
  2.370000e+02   1.018911e-06 
  2.380000e+02   8.758021e-07 
  2.390000e+02   9.344270e-07 
  2.400000e+02   1.026957e-06 
  2.410000e+02   9.369218e-07 
  2.420000e+02   1.000233e-06 
  2.430000e+02   7.693349e-07 
  2.440000e+02   9.790982e-07 
  2.450000e+02   8.408475e-07 
  2.460000e+02   9.024576e-07 
  2.470000e+02   1.006718e-06 
  2.480000e+02   9.331353e-07 
  2.490000e+02   6.867098e-07 
  2.500000e+02   8.137093e-07 
  2.510000e+02   7.943998e-07 
  2.520000e+02   9.967038e-07 
  2.530000e+02   1.033741e-06 
  2.540000e+02   9.562068e-07 
  2.550000e+02   9.449358e-07 
  2.560000e+02   8.663487e-07 
  2.570000e+02   8.658967e-07 
  2.580000e+02   8.928457e-07 
  2.590000e+02   8.521519e-07 
  2.600000e+02   8.149917e-07 
  2.610000e+02   8.564341e-07 
  2.620000e+02   8.755370e-07 
  2.630000e+02   9.942810e-07 
  2.640000e+02   8.739275e-07 
  2.650000e+02   9.745578e-07 
  2.660000e+02   7.756836e-07 
  2.670000e+02   7.435671e-07 
  2.680000e+02   8.282274e-07 
  2.690000e+02   9.589279e-07 
  2.700000e+02   6.463628e-07 
  2.710000e+02   9.514629e-07 
  2.720000e+02   8.939782e-07 
  2.730000e+02   8.398629e-07 
  2.740000e+02   7.795542e-07 
  2.750000e+02   5.950565e-07 
  2.760000e+02   8.857439e-07 
  2.770000e+02   9.267658e-07 
  2.780000e+02   8.910433e-07 
  2.790000e+02   7.832884e-07 
  2.800000e+02   8.485491e-07 
  2.810000e+02   8.301231e-07 
  2.820000e+02   9.414113e-07 
  2.830000e+02   1.047899e-06 
  2.840000e+02   7.283271e-07 
  2.850000e+02   6.520582e-07 
  2.860000e+02   7.873084e-07 
  2.870000e+02   8.800581e-07 
  2.880000e+02   8.328936e-07 
  2.890000e+02   8.390458e-07 
  2.900000e+02   8.021902e-07 
  2.910000e+02   6.617196e-07 
  2.920000e+02   7.465983e-07 
  2.930000e+02   7.582989e-07 
  2.940000e+02   7.996474e-07 
  2.950000e+02   7.056265e-07 
  2.960000e+02   7.544568e-07 
  2.970000e+02   8.322833e-07 
  2.980000e+02   7.410270e-07 
  2.990000e+02   7.596245e-07 
  3.000000e+02   9.202294e-07 
  3.010000e+02   6.688140e-07 
  3.020000e+02   8.147634e-07 
  3.030000e+02   7.258669e-07 
  3.040000e+02   6.378597e-07 
  3.050000e+02   6.950156e-07 
  3.060000e+02   6.263165e-07 
  3.070000e+02   6.336447e-07 
  3.080000e+02   7.539787e-07 
  3.090000e+02   6.841121e-07 
  3.100000e+02   6.782720e-07 
  3.110000e+02   7.241805e-07 
  3.120000e+02   8.585852e-07 
  3.130000e+02   7.335098e-07 
  3.140000e+02   6.460699e-07 
  3.150000e+02   8.170765e-07 
  3.160000e+02   6.642398e-07 
  3.170000e+02   6.145785e-07 
  3.180000e+02   7.455030e-07 
  3.190000e+02   8.077329e-07 
  3.200000e+02   7.992181e-07 
  3.210000e+02   6.428614e-07 
  3.220000e+02   7.593206e-07 
  3.230000e+02   5.298033e-07 
  3.240000e+02   6.456610e-07 
  3.250000e+02   7.658859e-07 
  3.260000e+02   6.512593e-07 
  3.270000e+02   6.819328e-07 
  3.280000e+02   5.680075e-07 
  3.290000e+02   6.546706e-07 
  3.300000e+02   7.317355e-07 
  3.310000e+02   6.623618e-07 
  3.320000e+02   7.268929e-07 
  3.330000e+02   6.379784e-07 
  3.340000e+02   5.847446e-07 
  3.350000e+02   6.486912e-07 
  3.360000e+02   6.031536e-07 
  3.370000e+02   7.839015e-07 
  3.380000e+02   6.429293e-07 
  3.390000e+02   6.190242e-07 
  3.400000e+02   6.190112e-07 
  3.410000e+02   7.089209e-07 
  3.420000e+02   6.929167e-07 
  3.430000e+02   7.750626e-07 
  3.440000e+02   7.035026e-07 
  3.450000e+02   5.813056e-07 
  3.460000e+02   5.109614e-07 
  3.470000e+02   5.359938e-07 
  3.480000e+02   7.463966e-07 
  3.490000e+02   6.347820e-07 
  3.500000e+02   6.230106e-07 
  3.510000e+02   5.659914e-07 
  3.520000e+02   4.547632e-07 
  3.530000e+02   7.718718e-07 
  3.540000e+02   6.680116e-07 
  3.550000e+02   5.974007e-07 
  3.560000e+02   5.386698e-07 
  3.570000e+02   5.709597e-07 
  3.580000e+02   6.753460e-07 
  3.590000e+02   6.092165e-07 
  3.600000e+02   5.896837e-07 
  3.610000e+02   7.752645e-07 
  3.620000e+02   6.378978e-07 
  3.630000e+02   7.322844e-07 
  3.640000e+02   6.518418e-07 
  3.650000e+02   7.120761e-07 
  3.660000e+02   5.184535e-07 
  3.670000e+02   5.974877e-07 
  3.680000e+02   6.842278e-07 
  3.690000e+02   7.018508e-07 
  3.700000e+02   6.161860e-07 
  3.710000e+02   6.234758e-07 
  3.720000e+02   5.886967e-07 
  3.730000e+02   5.252264e-07 
  3.740000e+02   6.001833e-07 
  3.750000e+02   6.055225e-07 
  3.760000e+02   5.734980e-07 
  3.770000e+02   5.546937e-07 
  3.780000e+02   4.998889e-07 
  3.790000e+02   5.535414e-07 
  3.800000e+02   7.486714e-07 
  3.810000e+02   6.483460e-07 
  3.820000e+02   6.873615e-07 
  3.830000e+02   6.646350e-07 
  3.840000e+02   5.935334e-07 
  3.850000e+02   5.917796e-07 
  3.860000e+02   5.777785e-07 
  3.870000e+02   5.737084e-07 
  3.880000e+02   5.655923e-07 
  3.890000e+02   6.460704e-07 
  3.900000e+02   6.810461e-07 
  3.910000e+02   6.189224e-07 
  3.920000e+02   4.798248e-07 
  3.930000e+02   6.100327e-07 
  3.940000e+02   5.010468e-07 
  3.950000e+02   7.558954e-07 
  3.960000e+02   5.056688e-07 
  3.970000e+02   6.997574e-07 
  3.980000e+02   4.982782e-07 
  3.990000e+02   5.292783e-07 
  4.000000e+02   5.838700e-07 
  4.010000e+02   5.520819e-07 
  4.020000e+02   5.369139e-07 
  4.030000e+02   6.531080e-07 
  4.040000e+02   6.523580e-07 
  4.050000e+02   6.122941e-07 
  4.060000e+02   5.643552e-07 
  4.070000e+02   4.599485e-07 
  4.080000e+02   5.376971e-07 
  4.090000e+02   4.718176e-07 
  4.100000e+02   5.139811e-07 
  4.110000e+02   5.613936e-07 
  4.120000e+02   4.635637e-07 
  4.130000e+02   6.077323e-07 
  4.140000e+02   5.821002e-07 
  4.150000e+02   4.697276e-07 
  4.160000e+02   4.951307e-07 
  4.170000e+02   5.056235e-07 
  4.180000e+02   5.788544e-07 
  4.190000e+02   6.180563e-07 
  4.200000e+02   7.042896e-07 
  4.210000e+02   5.407337e-07 
  4.220000e+02   6.237881e-07 
  4.230000e+02   4.773573e-07 
  4.240000e+02   5.895552e-07 
  4.250000e+02   5.948284e-07 
  4.260000e+02   5.359635e-07 
  4.270000e+02   6.046621e-07 
  4.280000e+02   5.296679e-07 
  4.290000e+02   6.141810e-07 
  4.300000e+02   5.714254e-07 
  4.310000e+02   5.063505e-07 
  4.320000e+02   4.850414e-07 
  4.330000e+02   6.087487e-07 
  4.340000e+02   5.552221e-07 
  4.350000e+02   5.661490e-07 
  4.360000e+02   4.373874e-07 
  4.370000e+02   5.638976e-07 
  4.380000e+02   5.602505e-07 
  4.390000e+02   5.889603e-07 
  4.400000e+02   5.113407e-07 
  4.410000e+02   5.273039e-07 
  4.420000e+02   4.825883e-07 
  4.430000e+02   6.391603e-07 
  4.440000e+02   4.455413e-07 
  4.450000e+02   5.146264e-07 
  4.460000e+02   4.664588e-07 
  4.470000e+02   4.830133e-07 
  4.480000e+02   4.740605e-07 
  4.490000e+02   4.321510e-07 
  4.500000e+02   5.570251e-07 
  4.510000e+02   4.939116e-07 
  4.520000e+02   4.598056e-07 
  4.530000e+02   4.888843e-07 
  4.540000e+02   5.690874e-07 
  4.550000e+02   4.873323e-07 
  4.560000e+02   4.282533e-07 
  4.570000e+02   4.949353e-07 
  4.580000e+02   4.951751e-07 
  4.590000e+02   5.099384e-07 
  4.600000e+02   5.778075e-07 
  4.610000e+02   5.344498e-07 
  4.620000e+02   5.167699e-07 
  4.630000e+02   5.383127e-07 
  4.640000e+02   5.295488e-07 
  4.650000e+02   5.715143e-07 
  4.660000e+02   5.270138e-07 
  4.670000e+02   4.831751e-07 
  4.680000e+02   4.924208e-07 
  4.690000e+02   4.953158e-07 
  4.700000e+02   3.973833e-07 
  4.710000e+02   4.948086e-07 
  4.720000e+02   3.768313e-07 
  4.730000e+02   5.412350e-07 
  4.740000e+02   5.044491e-07 
  4.750000e+02   4.711760e-07 
  4.760000e+02   5.694778e-07 
  4.770000e+02   4.635246e-07 
  4.780000e+02   5.177386e-07 
  4.790000e+02   4.923038e-07 
  4.800000e+02   3.550527e-07 
  4.810000e+02   5.162692e-07 
  4.820000e+02   4.723732e-07 
  4.830000e+02   4.959879e-07 
  4.840000e+02   5.904564e-07 
  4.850000e+02   3.853247e-07 
  4.860000e+02   4.708131e-07 
  4.870000e+02   5.054367e-07 
  4.880000e+02   4.998236e-07 
  4.890000e+02   4.223721e-07 
  4.900000e+02   5.496374e-07 
  4.910000e+02   3.983709e-07 
  4.920000e+02   4.427467e-07 
  4.930000e+02   5.105517e-07 
  4.940000e+02   4.871998e-07 
  4.950000e+02   4.678976e-07 
  4.960000e+02   4.759150e-07 
  4.970000e+02   5.415704e-07 
  4.980000e+02   4.999444e-07 
  4.990000e+02   4.687375e-07 
  5.000000e+02   3.880391e-07 
  5.010000e+02   4.708000e-07 
  5.020000e+02   3.291157e-07 
  5.030000e+02   4.438610e-07 
  5.040000e+02   4.934391e-07 
  5.050000e+02   3.308186e-07 
  5.060000e+02   4.358987e-07 
  5.070000e+02   4.633414e-07 
  5.080000e+02   4.531909e-07 
  5.090000e+02   4.376947e-07 
  5.100000e+02   4.636679e-07 
  5.110000e+02   4.862807e-07 
  5.120000e+02   3.827341e-07 
  5.130000e+02   4.500705e-07 
  5.140000e+02   4.272933e-07 
  5.150000e+02   4.090600e-07 
  5.160000e+02   5.287459e-07 
  5.170000e+02   4.510327e-07 
  5.180000e+02   4.708081e-07 
  5.190000e+02   5.138689e-07 
  5.200000e+02   5.076159e-07 
  5.210000e+02   3.372083e-07 
  5.220000e+02   5.190053e-07 
  5.230000e+02   4.348220e-07 
  5.240000e+02   4.231674e-07 
  5.250000e+02   3.562531e-07 
  5.260000e+02   4.199092e-07 
  5.270000e+02   3.732865e-07 
  5.280000e+02   4.454496e-07 
  5.290000e+02   4.928393e-07 
  5.300000e+02   4.496980e-07 
  5.310000e+02   4.890480e-07 
  5.320000e+02   4.695271e-07 
  5.330000e+02   4.889887e-07 
  5.340000e+02   3.881662e-07 
  5.350000e+02   3.992306e-07 
  5.360000e+02   3.562069e-07 
  5.370000e+02   4.598503e-07 
  5.380000e+02   4.782116e-07 
  5.390000e+02   4.207809e-07 
  5.400000e+02   5.111275e-07 
  5.410000e+02   4.463471e-07 
  5.420000e+02   3.848967e-07 
  5.430000e+02   4.099006e-07 
  5.440000e+02   4.768340e-07 
  5.450000e+02   3.844607e-07 
  5.460000e+02   3.678813e-07 
  5.470000e+02   4.296163e-07 
  5.480000e+02   3.469360e-07 
  5.490000e+02   4.504767e-07 
  5.500000e+02   4.097967e-07 
  5.510000e+02   3.507593e-07 
  5.520000e+02   3.883199e-07 
  5.530000e+02   3.652937e-07 
  5.540000e+02   4.560403e-07 
  5.550000e+02   4.343581e-07 
  5.560000e+02   4.711059e-07 
  5.570000e+02   4.538743e-07 
  5.580000e+02   3.284383e-07 
  5.590000e+02   4.267638e-07 
  5.600000e+02   3.768628e-07 
  5.610000e+02   4.376814e-07 
  5.620000e+02   3.854193e-07 
  5.630000e+02   3.879413e-07 
  5.640000e+02   4.320982e-07 
  5.650000e+02   4.421790e-07 
  5.660000e+02   4.096172e-07 
  5.670000e+02   4.096577e-07 
  5.680000e+02   5.170439e-07 
  5.690000e+02   4.066318e-07 
  5.700000e+02   4.369170e-07 
  5.710000e+02   4.671377e-07 
  5.720000e+02   4.248329e-07 
  5.730000e+02   3.622013e-07 
  5.740000e+02   3.974558e-07 
  5.750000e+02   3.700904e-07 
  5.760000e+02   4.687259e-07 
  5.770000e+02   3.973686e-07 
  5.780000e+02   4.571160e-07 
  5.790000e+02   3.577975e-07 
  5.800000e+02   4.277626e-07 
  5.810000e+02   4.114010e-07 
  5.820000e+02   4.151698e-07 
  5.830000e+02   4.023355e-07 
  5.840000e+02   4.235086e-07 
  5.850000e+02   3.556916e-07 
  5.860000e+02   3.765491e-07 
  5.870000e+02   3.374293e-07 
  5.880000e+02   4.070525e-07 
  5.890000e+02   4.018718e-07 
  5.900000e+02   4.074436e-07 
  5.910000e+02   3.529428e-07 
  5.920000e+02   3.474294e-07 
  5.930000e+02   3.348649e-07 
  5.940000e+02   3.787212e-07 
  5.950000e+02   3.597296e-07 
  5.960000e+02   4.053717e-07 
  5.970000e+02   3.515702e-07 
  5.980000e+02   3.600688e-07 
  5.990000e+02   3.544161e-07 
  6.000000e+02   3.839657e-07 
  6.010000e+02   4.104017e-07 
  6.020000e+02   4.037588e-07 
  6.030000e+02   3.579816e-07 
  6.040000e+02   3.430691e-07 
  6.050000e+02   3.580721e-07 
  6.060000e+02   4.053188e-07 
  6.070000e+02   4.332888e-07 
  6.080000e+02   4.124836e-07 
  6.090000e+02   3.709081e-07 
  6.100000e+02   4.203168e-07 
  6.110000e+02   3.438196e-07 
  6.120000e+02   3.381354e-07 
  6.130000e+02   3.613701e-07 
  6.140000e+02   3.684668e-07 
  6.150000e+02   3.934508e-07 
  6.160000e+02   3.701360e-07 
  6.170000e+02   3.118413e-07 
  6.180000e+02   4.208400e-07 
  6.190000e+02   3.926076e-07 
  6.200000e+02   3.626866e-07 
  6.210000e+02   3.841953e-07 
  6.220000e+02   3.890441e-07 
  6.230000e+02   4.040332e-07 
  6.240000e+02   3.083537e-07 
  6.250000e+02   4.244762e-07 
  6.260000e+02   3.492693e-07 
  6.270000e+02   3.496024e-07 
  6.280000e+02   4.092078e-07 
  6.290000e+02   3.151882e-07 
  6.300000e+02   3.957711e-07 
  6.310000e+02   3.931645e-07 
  6.320000e+02   4.320500e-07 
  6.330000e+02   3.102538e-07 
  6.340000e+02   3.754542e-07 
  6.350000e+02   3.588245e-07 
  6.360000e+02   3.441072e-07 
  6.370000e+02   3.635458e-07 
  6.380000e+02   4.324394e-07 
  6.390000e+02   4.184449e-07 
  6.400000e+02   3.373545e-07 
  6.410000e+02   3.444927e-07 
  6.420000e+02   3.711168e-07 
  6.430000e+02   3.294783e-07 
  6.440000e+02   3.235962e-07 
  6.450000e+02   3.021656e-07 
  6.460000e+02   3.695456e-07 
  6.470000e+02   3.590179e-07 
  6.480000e+02   3.510508e-07 
  6.490000e+02   3.247190e-07 
  6.500000e+02   3.876769e-07 
  6.510000e+02   3.181761e-07 
  6.520000e+02   3.895323e-07 
  6.530000e+02   3.615995e-07 
  6.540000e+02   2.893604e-07 
  6.550000e+02   3.721268e-07 
  6.560000e+02   3.429496e-07 
  6.570000e+02   3.874842e-07 
  6.580000e+02   4.017962e-07 
  6.590000e+02   3.639044e-07 
  6.600000e+02   3.008325e-07 
  6.610000e+02   3.394999e-07 
  6.620000e+02   3.679994e-07 
  6.630000e+02   3.430085e-07 
  6.640000e+02   3.403784e-07 
  6.650000e+02   3.419707e-07 
  6.660000e+02   3.681079e-07 
  6.670000e+02   3.624836e-07 
  6.680000e+02   4.035124e-07 
  6.690000e+02   3.869838e-07 
  6.700000e+02   4.016732e-07 
  6.710000e+02   3.082994e-07 
  6.720000e+02   3.800329e-07 
  6.730000e+02   4.112954e-07 
  6.740000e+02   3.202872e-07 
  6.750000e+02   3.094968e-07 
  6.760000e+02   2.885246e-07 
  6.770000e+02   3.967484e-07 
  6.780000e+02   3.121375e-07 
  6.790000e+02   3.705649e-07 
  6.800000e+02   2.887650e-07 
  6.810000e+02   3.155419e-07 
  6.820000e+02   4.105594e-07 
  6.830000e+02   3.220502e-07 
  6.840000e+02   2.997335e-07 
  6.850000e+02   3.715112e-07 
  6.860000e+02   2.962829e-07 
  6.870000e+02   3.153922e-07 
  6.880000e+02   3.424073e-07 
  6.890000e+02   3.862778e-07 
  6.900000e+02   3.633424e-07 
  6.910000e+02   3.084867e-07 
  6.920000e+02   4.155205e-07 
  6.930000e+02   4.588070e-07 
  6.940000e+02   3.577786e-07 
  6.950000e+02   3.152694e-07 
  6.960000e+02   3.767620e-07 
  6.970000e+02   2.666826e-07 
  6.980000e+02   3.796424e-07 
  6.990000e+02   3.564733e-07 
  7.000000e+02   2.993208e-07 
  7.010000e+02   2.618925e-07 
  7.020000e+02   3.620571e-07 
  7.030000e+02   3.272074e-07 
  7.040000e+02   2.938795e-07 
  7.050000e+02   2.777643e-07 
  7.060000e+02   2.971854e-07 
  7.070000e+02   2.427577e-07 
  7.080000e+02   3.069156e-07 
  7.090000e+02   3.235110e-07 
  7.100000e+02   2.925515e-07 
  7.110000e+02   2.620181e-07 
  7.120000e+02   3.322459e-07 
  7.130000e+02   3.904399e-07 
  7.140000e+02   3.312812e-07 
  7.150000e+02   3.255552e-07 
  7.160000e+02   3.497854e-07 
  7.170000e+02   3.018539e-07 
  7.180000e+02   2.588968e-07 
  7.190000e+02   2.819017e-07 
  7.200000e+02   3.395598e-07 
  7.210000e+02   3.445106e-07 
  7.220000e+02   3.363511e-07 
  7.230000e+02   3.211847e-07 
  7.240000e+02   2.977675e-07 
  7.250000e+02   2.883178e-07 
  7.260000e+02   3.427586e-07 
  7.270000e+02   3.196430e-07 
  7.280000e+02   3.436320e-07 
  7.290000e+02   2.949073e-07 
  7.300000e+02   3.121434e-07 
  7.310000e+02   3.018177e-07 
  7.320000e+02   2.857079e-07 
  7.330000e+02   3.579057e-07 
  7.340000e+02   2.762935e-07 
  7.350000e+02   3.855643e-07 
  7.360000e+02   3.570075e-07 
  7.370000e+02   2.877034e-07 
  7.380000e+02   2.908090e-07 
  7.390000e+02   3.337736e-07 
  7.400000e+02   3.404862e-07 
  7.410000e+02   3.237622e-07 
  7.420000e+02   3.073594e-07 
  7.430000e+02   2.371024e-07 
  7.440000e+02   2.966690e-07 
  7.450000e+02   3.023341e-07 
  7.460000e+02   2.751364e-07 
  7.470000e+02   2.734141e-07 
  7.480000e+02   2.991463e-07 
  7.490000e+02   3.095444e-07 
  7.500000e+02   3.025458e-07 
  7.510000e+02   3.205166e-07 
  7.520000e+02   2.982740e-07 
  7.530000e+02   2.739774e-07 
  7.540000e+02   2.876221e-07 
  7.550000e+02   3.026806e-07 
  7.560000e+02   3.202642e-07 
  7.570000e+02   3.813049e-07 
  7.580000e+02   2.482579e-07 
  7.590000e+02   3.281625e-07 
  7.600000e+02   2.831510e-07 
  7.610000e+02   3.175355e-07 
  7.620000e+02   2.861787e-07 
  7.630000e+02   3.353441e-07 
  7.640000e+02   2.809443e-07 
  7.650000e+02   2.784739e-07 
  7.660000e+02   3.481171e-07 
  7.670000e+02   3.510383e-07 
  7.680000e+02   2.736735e-07 
  7.690000e+02   2.573849e-07 
  7.700000e+02   3.221416e-07 
  7.710000e+02   3.087605e-07 
  7.720000e+02   3.371820e-07 
  7.730000e+02   2.799440e-07 
  7.740000e+02   3.235753e-07 
  7.750000e+02   2.793244e-07 
  7.760000e+02   2.585926e-07 
  7.770000e+02   2.906741e-07 
  7.780000e+02   3.064139e-07 
  7.790000e+02   3.080946e-07 
  7.800000e+02   2.825364e-07 
  7.810000e+02   3.291445e-07 
  7.820000e+02   2.824153e-07 
  7.830000e+02   3.643284e-07 
  7.840000e+02   2.899847e-07 
  7.850000e+02   2.901549e-07 
  7.860000e+02   3.340710e-07 
  7.870000e+02   2.834516e-07 
  7.880000e+02   2.741172e-07 
  7.890000e+02   2.489807e-07 
  7.900000e+02   2.513766e-07 
  7.910000e+02   2.959051e-07 
  7.920000e+02   3.009495e-07 
  7.930000e+02   2.666404e-07 
  7.940000e+02   3.798451e-07 
  7.950000e+02   3.062387e-07 
  7.960000e+02   2.481872e-07 
  7.970000e+02   2.265747e-07 
  7.980000e+02   3.273073e-07 
  7.990000e+02   2.814834e-07 
  8.000000e+02   2.867896e-07 
