Input File: BG-LPF-J.78D
Measure Group: FFT
Measurement: FFT 2
Num of extracted Points: 801
Start Freq: 6.4 kHz
Span: 800 Hz
FFT Lines:  400 
Window: Uniform
Averaging Mode: RMS
Averaging Type: Linear / Fix Len
Number of Avg:   20
Overload reject: Off

    X[Hz]      Vrms/Hz^(1/... 
  6.400000e+03   3.553137e-09 
  6.401000e+03   5.586385e-09 
  6.402000e+03   5.935706e-09 
  6.403000e+03   4.987381e-09 
  6.404000e+03   4.837586e-09 
  6.405000e+03   5.853039e-09 
  6.406000e+03   6.061516e-09 
  6.407000e+03   5.129541e-09 
  6.408000e+03   5.434304e-09 
  6.409000e+03   4.716574e-09 
  6.410000e+03   4.750106e-09 
  6.411000e+03   4.841786e-09 
  6.412000e+03   5.058950e-09 
  6.413000e+03   4.281953e-09 
  6.414000e+03   5.133851e-09 
  6.415000e+03   5.711621e-09 
  6.416000e+03   5.438848e-09 
  6.417000e+03   4.820526e-09 
  6.418000e+03   4.481120e-09 
  6.419000e+03   5.374593e-09 
  6.420000e+03   5.443964e-09 
  6.421000e+03   5.393809e-09 
  6.422000e+03   4.490556e-09 
  6.423000e+03   5.163127e-09 
  6.424000e+03   3.888222e-09 
  6.425000e+03   5.014938e-09 
  6.426000e+03   5.972546e-09 
  6.427000e+03   5.418771e-09 
  6.428000e+03   4.158256e-09 
  6.429000e+03   5.001579e-09 
  6.430000e+03   4.970921e-09 
  6.431000e+03   4.844340e-09 
  6.432000e+03   5.514821e-09 
  6.433000e+03   4.566001e-09 
  6.434000e+03   4.547052e-09 
  6.435000e+03   6.463679e-09 
  6.436000e+03   5.682971e-09 
  6.437000e+03   4.741611e-09 
  6.438000e+03   5.126942e-09 
  6.439000e+03   5.428132e-09 
  6.440000e+03   5.757746e-09 
  6.441000e+03   5.610730e-09 
  6.442000e+03   5.259415e-09 
  6.443000e+03   4.623052e-09 
  6.444000e+03   3.670132e-09 
  6.445000e+03   4.926187e-09 
  6.446000e+03   5.529558e-09 
  6.447000e+03   4.304845e-09 
  6.448000e+03   4.704495e-09 
  6.449000e+03   5.579872e-09 
  6.450000e+03   4.528433e-09 
  6.451000e+03   5.249878e-09 
  6.452000e+03   5.174092e-09 
  6.453000e+03   5.425305e-09 
  6.454000e+03   5.360381e-09 
  6.455000e+03   4.857998e-09 
  6.456000e+03   5.061632e-09 
  6.457000e+03   5.627661e-09 
  6.458000e+03   5.812799e-09 
  6.459000e+03   4.919432e-09 
  6.460000e+03   4.522977e-09 
  6.461000e+03   5.110971e-09 
  6.462000e+03   5.237231e-09 
  6.463000e+03   4.817548e-09 
  6.464000e+03   4.570170e-09 
  6.465000e+03   4.681532e-09 
  6.466000e+03   4.516003e-09 
  6.467000e+03   5.011939e-09 
  6.468000e+03   4.301159e-09 
  6.469000e+03   4.812056e-09 
  6.470000e+03   4.998002e-09 
  6.471000e+03   5.153418e-09 
  6.472000e+03   4.987023e-09 
  6.473000e+03   4.425181e-09 
  6.474000e+03   4.739849e-09 
  6.475000e+03   5.353383e-09 
  6.476000e+03   5.492901e-09 
  6.477000e+03   4.490955e-09 
  6.478000e+03   4.941223e-09 
  6.479000e+03   5.399287e-09 
  6.480000e+03   4.356234e-09 
  6.481000e+03   5.836520e-09 
  6.482000e+03   4.453021e-09 
  6.483000e+03   5.902898e-09 
  6.484000e+03   4.668701e-09 
  6.485000e+03   4.999909e-09 
  6.486000e+03   4.788771e-09 
  6.487000e+03   5.362081e-09 
  6.488000e+03   4.234983e-09 
  6.489000e+03   4.093162e-09 
  6.490000e+03   4.829017e-09 
  6.491000e+03   4.965356e-09 
  6.492000e+03   4.571184e-09 
  6.493000e+03   4.750335e-09 
  6.494000e+03   5.481778e-09 
  6.495000e+03   4.100540e-09 
  6.496000e+03   4.351716e-09 
  6.497000e+03   4.630350e-09 
  6.498000e+03   4.263166e-09 
  6.499000e+03   5.377945e-09 
  6.500000e+03   4.218411e-09 
  6.501000e+03   4.481115e-09 
  6.502000e+03   4.863515e-09 
  6.503000e+03   5.423562e-09 
  6.504000e+03   5.422859e-09 
  6.505000e+03   5.118604e-09 
  6.506000e+03   4.620383e-09 
  6.507000e+03   5.287488e-09 
  6.508000e+03   4.448405e-09 
  6.509000e+03   5.451993e-09 
  6.510000e+03   5.232700e-09 
  6.511000e+03   4.979213e-09 
  6.512000e+03   5.282238e-09 
  6.513000e+03   5.392212e-09 
  6.514000e+03   4.749946e-09 
  6.515000e+03   5.488928e-09 
  6.516000e+03   5.000292e-09 
  6.517000e+03   5.154549e-09 
  6.518000e+03   5.068281e-09 
  6.519000e+03   4.947196e-09 
  6.520000e+03   5.181709e-09 
  6.521000e+03   5.923068e-09 
  6.522000e+03   5.182100e-09 
  6.523000e+03   4.791739e-09 
  6.524000e+03   5.078407e-09 
  6.525000e+03   5.342651e-09 
  6.526000e+03   5.258367e-09 
  6.527000e+03   5.558148e-09 
  6.528000e+03   5.128226e-09 
  6.529000e+03   5.008016e-09 
  6.530000e+03   4.874632e-09 
  6.531000e+03   6.136280e-09 
  6.532000e+03   5.160486e-09 
  6.533000e+03   5.244228e-09 
  6.534000e+03   5.416644e-09 
  6.535000e+03   4.284659e-09 
  6.536000e+03   5.369675e-09 
  6.537000e+03   4.591585e-09 
  6.538000e+03   4.348006e-09 
  6.539000e+03   5.248733e-09 
  6.540000e+03   3.915029e-09 
  6.541000e+03   3.815809e-09 
  6.542000e+03   5.242717e-09 
  6.543000e+03   5.239376e-09 
  6.544000e+03   4.517791e-09 
  6.545000e+03   5.031504e-09 
  6.546000e+03   4.330491e-09 
  6.547000e+03   4.706079e-09 
  6.548000e+03   6.049587e-09 
  6.549000e+03   5.557976e-09 
  6.550000e+03   5.213310e-09 
  6.551000e+03   5.419684e-09 
  6.552000e+03   4.417433e-09 
  6.553000e+03   4.882631e-09 
  6.554000e+03   3.920899e-09 
  6.555000e+03   4.625025e-09 
  6.556000e+03   4.226583e-09 
  6.557000e+03   5.162786e-09 
  6.558000e+03   4.484458e-09 
  6.559000e+03   4.805458e-09 
  6.560000e+03   5.286921e-09 
  6.561000e+03   4.730579e-09 
  6.562000e+03   4.979057e-09 
  6.563000e+03   4.286886e-09 
  6.564000e+03   4.630594e-09 
  6.565000e+03   4.617083e-09 
  6.566000e+03   5.041290e-09 
  6.567000e+03   4.331064e-09 
  6.568000e+03   5.196314e-09 
  6.569000e+03   5.454933e-09 
  6.570000e+03   4.226727e-09 
  6.571000e+03   6.410760e-09 
  6.572000e+03   4.863437e-09 
  6.573000e+03   4.943152e-09 
  6.574000e+03   4.453377e-09 
  6.575000e+03   4.154165e-09 
  6.576000e+03   4.074099e-09 
  6.577000e+03   5.430292e-09 
  6.578000e+03   5.204727e-09 
  6.579000e+03   4.662874e-09 
  6.580000e+03   5.444270e-09 
  6.581000e+03   5.209462e-09 
  6.582000e+03   5.694501e-09 
  6.583000e+03   4.588877e-09 
  6.584000e+03   5.008644e-09 
  6.585000e+03   4.756176e-09 
  6.586000e+03   4.944067e-09 
  6.587000e+03   4.802479e-09 
  6.588000e+03   3.705636e-09 
  6.589000e+03   4.578721e-09 
  6.590000e+03   4.915530e-09 
  6.591000e+03   4.729445e-09 
  6.592000e+03   5.549742e-09 
  6.593000e+03   4.940401e-09 
  6.594000e+03   4.351492e-09 
  6.595000e+03   5.815446e-09 
  6.596000e+03   4.863347e-09 
  6.597000e+03   4.751118e-09 
  6.598000e+03   4.834867e-09 
  6.599000e+03   5.315635e-09 
  6.600000e+03   4.503390e-09 
  6.601000e+03   4.848276e-09 
  6.602000e+03   4.860170e-09 
  6.603000e+03   4.551762e-09 
  6.604000e+03   4.168382e-09 
  6.605000e+03   5.821808e-09 
  6.606000e+03   4.192991e-09 
  6.607000e+03   4.381855e-09 
  6.608000e+03   4.432750e-09 
  6.609000e+03   4.764413e-09 
  6.610000e+03   3.981826e-09 
  6.611000e+03   4.542485e-09 
  6.612000e+03   5.469110e-09 
  6.613000e+03   4.322191e-09 
  6.614000e+03   4.527707e-09 
  6.615000e+03   4.001436e-09 
  6.616000e+03   4.108516e-09 
  6.617000e+03   5.675697e-09 
  6.618000e+03   5.009820e-09 
  6.619000e+03   4.348554e-09 
  6.620000e+03   5.656581e-09 
  6.621000e+03   4.352671e-09 
  6.622000e+03   4.171751e-09 
  6.623000e+03   4.079548e-09 
  6.624000e+03   5.333380e-09 
  6.625000e+03   5.587007e-09 
  6.626000e+03   4.640767e-09 
  6.627000e+03   5.237890e-09 
  6.628000e+03   4.626034e-09 
  6.629000e+03   5.102051e-09 
  6.630000e+03   4.259685e-09 
  6.631000e+03   5.022093e-09 
  6.632000e+03   4.968010e-09 
  6.633000e+03   3.716968e-09 
  6.634000e+03   4.930127e-09 
  6.635000e+03   4.563429e-09 
  6.636000e+03   5.455958e-09 
  6.637000e+03   5.467709e-09 
  6.638000e+03   4.248458e-09 
  6.639000e+03   5.523279e-09 
  6.640000e+03   5.421005e-09 
  6.641000e+03   4.188843e-09 
  6.642000e+03   5.215564e-09 
  6.643000e+03   5.166108e-09 
  6.644000e+03   4.834134e-09 
  6.645000e+03   4.872333e-09 
  6.646000e+03   5.246465e-09 
  6.647000e+03   5.256204e-09 
  6.648000e+03   4.669735e-09 
  6.649000e+03   4.332549e-09 
  6.650000e+03   5.143396e-09 
  6.651000e+03   4.970277e-09 
  6.652000e+03   4.727004e-09 
  6.653000e+03   4.944082e-09 
  6.654000e+03   5.031638e-09 
  6.655000e+03   3.539548e-09 
  6.656000e+03   4.537193e-09 
  6.657000e+03   5.101050e-09 
  6.658000e+03   5.394858e-09 
  6.659000e+03   4.536292e-09 
  6.660000e+03   4.430683e-09 
  6.661000e+03   5.486649e-09 
  6.662000e+03   5.371661e-09 
  6.663000e+03   5.597000e-09 
  6.664000e+03   4.672731e-09 
  6.665000e+03   4.557035e-09 
  6.666000e+03   5.636548e-09 
  6.667000e+03   5.705364e-09 
  6.668000e+03   5.757518e-09 
  6.669000e+03   4.994047e-09 
  6.670000e+03   3.315001e-09 
  6.671000e+03   5.098997e-09 
  6.672000e+03   4.787169e-09 
  6.673000e+03   5.797467e-09 
  6.674000e+03   5.206400e-09 
  6.675000e+03   4.671116e-09 
  6.676000e+03   4.547303e-09 
  6.677000e+03   4.221736e-09 
  6.678000e+03   5.015200e-09 
  6.679000e+03   4.890576e-09 
  6.680000e+03   4.804206e-09 
  6.681000e+03   4.879000e-09 
  6.682000e+03   4.222760e-09 
  6.683000e+03   5.264506e-09 
  6.684000e+03   5.524236e-09 
  6.685000e+03   5.257703e-09 
  6.686000e+03   4.897426e-09 
  6.687000e+03   4.430611e-09 
  6.688000e+03   5.231363e-09 
  6.689000e+03   4.375674e-09 
  6.690000e+03   4.698666e-09 
  6.691000e+03   5.361368e-09 
  6.692000e+03   4.795138e-09 
  6.693000e+03   5.011767e-09 
  6.694000e+03   5.143499e-09 
  6.695000e+03   4.746840e-09 
  6.696000e+03   5.261392e-09 
  6.697000e+03   5.729178e-09 
  6.698000e+03   4.788458e-09 
  6.699000e+03   5.804942e-09 
  6.700000e+03   5.190103e-09 
  6.701000e+03   4.618794e-09 
  6.702000e+03   5.848592e-09 
  6.703000e+03   4.323350e-09 
  6.704000e+03   5.122928e-09 
  6.705000e+03   4.780031e-09 
  6.706000e+03   6.048374e-09 
  6.707000e+03   4.454496e-09 
  6.708000e+03   5.080721e-09 
  6.709000e+03   4.689757e-09 
  6.710000e+03   4.557223e-09 
  6.711000e+03   4.482813e-09 
  6.712000e+03   5.035086e-09 
  6.713000e+03   4.217773e-09 
  6.714000e+03   3.829128e-09 
  6.715000e+03   4.477668e-09 
  6.716000e+03   4.794233e-09 
  6.717000e+03   4.445696e-09 
  6.718000e+03   4.641325e-09 
  6.719000e+03   5.049409e-09 
  6.720000e+03   4.330754e-09 
  6.721000e+03   5.472648e-09 
  6.722000e+03   4.837743e-09 
  6.723000e+03   4.895162e-09 
  6.724000e+03   4.570619e-09 
  6.725000e+03   5.772497e-09 
  6.726000e+03   5.245239e-09 
  6.727000e+03   5.775159e-09 
  6.728000e+03   4.651239e-09 
  6.729000e+03   5.378086e-09 
  6.730000e+03   3.790146e-09 
  6.731000e+03   4.748207e-09 
  6.732000e+03   5.732134e-09 
  6.733000e+03   4.787967e-09 
  6.734000e+03   4.584593e-09 
  6.735000e+03   5.008047e-09 
  6.736000e+03   4.655246e-09 
  6.737000e+03   5.002980e-09 
  6.738000e+03   5.256415e-09 
  6.739000e+03   3.869086e-09 
  6.740000e+03   5.560858e-09 
  6.741000e+03   4.184593e-09 
  6.742000e+03   4.984839e-09 
  6.743000e+03   3.973899e-09 
  6.744000e+03   4.856433e-09 
  6.745000e+03   4.605704e-09 
  6.746000e+03   3.843764e-09 
  6.747000e+03   4.157297e-09 
  6.748000e+03   5.255338e-09 
  6.749000e+03   4.464564e-09 
  6.750000e+03   5.287441e-09 
  6.751000e+03   4.242112e-09 
  6.752000e+03   4.739691e-09 
  6.753000e+03   4.982282e-09 
  6.754000e+03   5.485640e-09 
  6.755000e+03   5.402489e-09 
  6.756000e+03   4.956394e-09 
  6.757000e+03   4.369716e-09 
  6.758000e+03   4.444801e-09 
  6.759000e+03   5.578434e-09 
  6.760000e+03   4.982606e-09 
  6.761000e+03   4.307960e-09 
  6.762000e+03   6.280087e-09 
  6.763000e+03   5.079963e-09 
  6.764000e+03   4.653184e-09 
  6.765000e+03   4.483976e-09 
  6.766000e+03   4.073332e-09 
  6.767000e+03   4.578422e-09 
  6.768000e+03   4.788188e-09 
  6.769000e+03   4.695567e-09 
  6.770000e+03   5.262384e-09 
  6.771000e+03   5.292885e-09 
  6.772000e+03   5.113987e-09 
  6.773000e+03   5.528476e-09 
  6.774000e+03   4.613795e-09 
  6.775000e+03   4.074046e-09 
  6.776000e+03   3.866069e-09 
  6.777000e+03   4.640736e-09 
  6.778000e+03   4.431676e-09 
  6.779000e+03   3.898667e-09 
  6.780000e+03   5.183673e-09 
  6.781000e+03   4.388338e-09 
  6.782000e+03   4.787524e-09 
  6.783000e+03   4.618408e-09 
  6.784000e+03   4.946802e-09 
  6.785000e+03   4.873146e-09 
  6.786000e+03   5.224263e-09 
  6.787000e+03   5.158030e-09 
  6.788000e+03   4.606168e-09 
  6.789000e+03   5.489033e-09 
  6.790000e+03   4.107640e-09 
  6.791000e+03   4.286244e-09 
  6.792000e+03   5.709042e-09 
  6.793000e+03   4.852458e-09 
  6.794000e+03   5.112453e-09 
  6.795000e+03   5.347056e-09 
  6.796000e+03   5.619829e-09 
  6.797000e+03   4.837440e-09 
  6.798000e+03   4.811081e-09 
  6.799000e+03   5.043987e-09 
  6.800000e+03   4.456078e-09 
  6.801000e+03   4.709122e-09 
  6.802000e+03   5.188999e-09 
  6.803000e+03   4.719793e-09 
  6.804000e+03   5.422204e-09 
  6.805000e+03   5.517590e-09 
  6.806000e+03   5.305918e-09 
  6.807000e+03   4.354743e-09 
  6.808000e+03   5.396319e-09 
  6.809000e+03   4.002306e-09 
  6.810000e+03   3.740977e-09 
  6.811000e+03   5.057965e-09 
  6.812000e+03   5.275567e-09 
  6.813000e+03   4.891050e-09 
  6.814000e+03   4.254937e-09 
  6.815000e+03   4.878012e-09 
  6.816000e+03   5.363761e-09 
  6.817000e+03   4.794937e-09 
  6.818000e+03   4.585035e-09 
  6.819000e+03   5.005020e-09 
  6.820000e+03   4.235564e-09 
  6.821000e+03   5.004823e-09 
  6.822000e+03   5.699649e-09 
  6.823000e+03   5.024845e-09 
  6.824000e+03   4.765256e-09 
  6.825000e+03   5.093799e-09 
  6.826000e+03   5.841862e-09 
  6.827000e+03   5.674057e-09 
  6.828000e+03   5.640425e-09 
  6.829000e+03   6.299601e-09 
  6.830000e+03   5.596245e-09 
  6.831000e+03   4.978575e-09 
  6.832000e+03   5.149276e-09 
  6.833000e+03   6.025906e-09 
  6.834000e+03   5.744905e-09 
  6.835000e+03   4.363078e-09 
  6.836000e+03   5.104348e-09 
  6.837000e+03   5.969965e-09 
  6.838000e+03   4.357060e-09 
  6.839000e+03   5.620688e-09 
  6.840000e+03   5.625755e-09 
  6.841000e+03   4.680469e-09 
  6.842000e+03   4.847902e-09 
  6.843000e+03   5.288197e-09 
  6.844000e+03   5.036695e-09 
  6.845000e+03   5.614497e-09 
  6.846000e+03   5.059094e-09 
  6.847000e+03   5.324888e-09 
  6.848000e+03   4.642377e-09 
  6.849000e+03   5.394948e-09 
  6.850000e+03   4.712171e-09 
  6.851000e+03   5.639872e-09 
  6.852000e+03   5.230703e-09 
  6.853000e+03   5.336257e-09 
  6.854000e+03   5.755676e-09 
  6.855000e+03   5.631549e-09 
  6.856000e+03   4.554779e-09 
  6.857000e+03   6.261709e-09 
  6.858000e+03   4.940520e-09 
  6.859000e+03   5.639756e-09 
  6.860000e+03   4.831918e-09 
  6.861000e+03   3.664612e-09 
  6.862000e+03   4.331660e-09 
  6.863000e+03   3.610604e-09 
  6.864000e+03   4.747219e-09 
  6.865000e+03   5.188025e-09 
  6.866000e+03   5.056513e-09 
  6.867000e+03   4.749531e-09 
  6.868000e+03   5.198605e-09 
  6.869000e+03   4.117938e-09 
  6.870000e+03   4.952314e-09 
  6.871000e+03   4.376547e-09 
  6.872000e+03   4.304275e-09 
  6.873000e+03   5.102349e-09 
  6.874000e+03   5.418358e-09 
  6.875000e+03   4.139436e-09 
  6.876000e+03   5.132012e-09 
  6.877000e+03   4.182047e-09 
  6.878000e+03   4.652266e-09 
  6.879000e+03   5.677421e-09 
  6.880000e+03   5.212095e-09 
  6.881000e+03   4.603778e-09 
  6.882000e+03   5.244607e-09 
  6.883000e+03   4.947362e-09 
  6.884000e+03   5.039562e-09 
  6.885000e+03   4.804950e-09 
  6.886000e+03   3.762166e-09 
  6.887000e+03   5.082283e-09 
  6.888000e+03   4.681923e-09 
  6.889000e+03   5.662708e-09 
  6.890000e+03   5.153289e-09 
  6.891000e+03   4.414571e-09 
  6.892000e+03   4.440749e-09 
  6.893000e+03   5.247468e-09 
  6.894000e+03   4.348412e-09 
  6.895000e+03   5.306667e-09 
  6.896000e+03   5.022301e-09 
  6.897000e+03   4.368592e-09 
  6.898000e+03   6.556031e-09 
  6.899000e+03   5.165432e-09 
  6.900000e+03   5.108789e-09 
  6.901000e+03   4.662684e-09 
  6.902000e+03   3.722040e-09 
  6.903000e+03   5.251921e-09 
  6.904000e+03   5.621326e-09 
  6.905000e+03   5.845781e-09 
  6.906000e+03   4.720043e-09 
  6.907000e+03   4.649329e-09 
  6.908000e+03   4.511719e-09 
  6.909000e+03   4.868223e-09 
  6.910000e+03   4.723644e-09 
  6.911000e+03   5.627722e-09 
  6.912000e+03   4.970627e-09 
  6.913000e+03   6.069996e-09 
  6.914000e+03   5.327521e-09 
  6.915000e+03   4.996824e-09 
  6.916000e+03   4.029643e-09 
  6.917000e+03   5.604217e-09 
  6.918000e+03   4.052726e-09 
  6.919000e+03   4.091063e-09 
  6.920000e+03   4.930957e-09 
  6.921000e+03   5.060344e-09 
  6.922000e+03   5.057503e-09 
  6.923000e+03   4.093967e-09 
  6.924000e+03   5.535422e-09 
  6.925000e+03   5.562455e-09 
  6.926000e+03   3.793158e-09 
  6.927000e+03   3.542725e-09 
  6.928000e+03   4.384120e-09 
  6.929000e+03   4.856928e-09 
  6.930000e+03   4.216473e-09 
  6.931000e+03   4.442507e-09 
  6.932000e+03   4.949951e-09 
  6.933000e+03   4.773537e-09 
  6.934000e+03   4.725582e-09 
  6.935000e+03   5.920970e-09 
  6.936000e+03   6.152631e-09 
  6.937000e+03   5.235396e-09 
  6.938000e+03   4.953010e-09 
  6.939000e+03   4.533064e-09 
  6.940000e+03   4.978455e-09 
  6.941000e+03   4.665564e-09 
  6.942000e+03   3.996648e-09 
  6.943000e+03   4.783198e-09 
  6.944000e+03   5.597545e-09 
  6.945000e+03   4.786917e-09 
  6.946000e+03   4.336117e-09 
  6.947000e+03   4.922032e-09 
  6.948000e+03   5.169214e-09 
  6.949000e+03   4.469285e-09 
  6.950000e+03   5.154861e-09 
  6.951000e+03   4.972135e-09 
  6.952000e+03   5.807871e-09 
  6.953000e+03   4.858819e-09 
  6.954000e+03   5.401227e-09 
  6.955000e+03   5.280924e-09 
  6.956000e+03   6.508011e-09 
  6.957000e+03   4.709153e-09 
  6.958000e+03   5.320441e-09 
  6.959000e+03   4.382171e-09 
  6.960000e+03   5.601006e-09 
  6.961000e+03   4.809480e-09 
  6.962000e+03   3.968633e-09 
  6.963000e+03   5.344591e-09 
  6.964000e+03   5.036677e-09 
  6.965000e+03   5.249819e-09 
  6.966000e+03   4.623248e-09 
  6.967000e+03   4.424952e-09 
  6.968000e+03   5.642981e-09 
  6.969000e+03   4.772573e-09 
  6.970000e+03   4.722599e-09 
  6.971000e+03   5.364029e-09 
  6.972000e+03   4.107206e-09 
  6.973000e+03   4.082079e-09 
  6.974000e+03   4.700930e-09 
  6.975000e+03   5.464743e-09 
  6.976000e+03   5.450796e-09 
  6.977000e+03   4.409260e-09 
  6.978000e+03   4.849783e-09 
  6.979000e+03   4.271063e-09 
  6.980000e+03   5.044140e-09 
  6.981000e+03   4.760776e-09 
  6.982000e+03   4.651499e-09 
  6.983000e+03   4.373006e-09 
  6.984000e+03   4.494859e-09 
  6.985000e+03   4.585740e-09 
  6.986000e+03   6.008521e-09 
  6.987000e+03   4.918013e-09 
  6.988000e+03   5.601610e-09 
  6.989000e+03   4.307481e-09 
  6.990000e+03   4.753879e-09 
  6.991000e+03   4.720330e-09 
  6.992000e+03   5.444573e-09 
  6.993000e+03   5.167232e-09 
  6.994000e+03   4.143770e-09 
  6.995000e+03   4.885123e-09 
  6.996000e+03   4.442250e-09 
  6.997000e+03   5.163943e-09 
  6.998000e+03   4.709630e-09 
  6.999000e+03   4.611804e-09 
  7.000000e+03   4.214684e-09 
  7.001000e+03   4.150286e-09 
  7.002000e+03   5.452331e-09 
  7.003000e+03   5.007019e-09 
  7.004000e+03   4.873963e-09 
  7.005000e+03   4.920374e-09 
  7.006000e+03   4.996917e-09 
  7.007000e+03   4.622364e-09 
  7.008000e+03   4.516536e-09 
  7.009000e+03   4.704125e-09 
  7.010000e+03   4.768201e-09 
  7.011000e+03   4.876925e-09 
  7.012000e+03   5.109704e-09 
  7.013000e+03   3.660001e-09 
  7.014000e+03   5.405224e-09 
  7.015000e+03   4.882195e-09 
  7.016000e+03   4.980520e-09 
  7.017000e+03   4.894865e-09 
  7.018000e+03   4.108886e-09 
  7.019000e+03   5.032859e-09 
  7.020000e+03   4.768861e-09 
  7.021000e+03   5.146741e-09 
  7.022000e+03   5.128686e-09 
  7.023000e+03   6.126358e-09 
  7.024000e+03   6.084761e-09 
  7.025000e+03   4.806157e-09 
  7.026000e+03   4.974448e-09 
  7.027000e+03   4.743414e-09 
  7.028000e+03   5.513864e-09 
  7.029000e+03   4.803268e-09 
  7.030000e+03   4.444751e-09 
  7.031000e+03   4.868945e-09 
  7.032000e+03   4.245712e-09 
  7.033000e+03   5.010553e-09 
  7.034000e+03   4.504445e-09 
  7.035000e+03   5.050337e-09 
  7.036000e+03   5.408798e-09 
  7.037000e+03   5.894005e-09 
  7.038000e+03   4.550815e-09 
  7.039000e+03   4.353173e-09 
  7.040000e+03   5.000330e-09 
  7.041000e+03   5.742621e-09 
  7.042000e+03   4.541414e-09 
  7.043000e+03   5.468776e-09 
  7.044000e+03   5.124007e-09 
  7.045000e+03   4.051870e-09 
  7.046000e+03   5.239513e-09 
  7.047000e+03   4.432637e-09 
  7.048000e+03   4.315869e-09 
  7.049000e+03   4.690893e-09 
  7.050000e+03   5.220273e-09 
  7.051000e+03   4.584828e-09 
  7.052000e+03   5.046952e-09 
  7.053000e+03   5.276628e-09 
  7.054000e+03   5.502306e-09 
  7.055000e+03   5.492403e-09 
  7.056000e+03   4.634632e-09 
  7.057000e+03   5.686430e-09 
  7.058000e+03   4.887369e-09 
  7.059000e+03   4.136480e-09 
  7.060000e+03   5.234280e-09 
  7.061000e+03   4.879922e-09 
  7.062000e+03   5.674690e-09 
  7.063000e+03   4.451567e-09 
  7.064000e+03   5.099408e-09 
  7.065000e+03   5.111409e-09 
  7.066000e+03   4.957007e-09 
  7.067000e+03   5.281521e-09 
  7.068000e+03   4.718480e-09 
  7.069000e+03   5.247972e-09 
  7.070000e+03   4.774006e-09 
  7.071000e+03   4.761769e-09 
  7.072000e+03   5.412351e-09 
  7.073000e+03   4.910680e-09 
  7.074000e+03   4.558725e-09 
  7.075000e+03   4.015406e-09 
  7.076000e+03   4.582683e-09 
  7.077000e+03   5.118797e-09 
  7.078000e+03   5.269302e-09 
  7.079000e+03   4.429863e-09 
  7.080000e+03   5.581609e-09 
  7.081000e+03   4.635084e-09 
  7.082000e+03   5.650801e-09 
  7.083000e+03   5.253775e-09 
  7.084000e+03   4.722969e-09 
  7.085000e+03   4.730973e-09 
  7.086000e+03   5.308149e-09 
  7.087000e+03   4.656919e-09 
  7.088000e+03   4.796195e-09 
  7.089000e+03   4.992859e-09 
  7.090000e+03   5.112784e-09 
  7.091000e+03   5.413150e-09 
  7.092000e+03   4.716080e-09 
  7.093000e+03   3.936101e-09 
  7.094000e+03   5.520230e-09 
  7.095000e+03   4.751449e-09 
  7.096000e+03   5.081807e-09 
  7.097000e+03   4.669173e-09 
  7.098000e+03   4.394106e-09 
  7.099000e+03   4.637859e-09 
  7.100000e+03   4.698148e-09 
  7.101000e+03   4.744671e-09 
  7.102000e+03   5.708244e-09 
  7.103000e+03   6.429012e-09 
  7.104000e+03   4.889356e-09 
  7.105000e+03   5.163818e-09 
  7.106000e+03   4.482417e-09 
  7.107000e+03   5.071306e-09 
  7.108000e+03   3.957498e-09 
  7.109000e+03   5.067206e-09 
  7.110000e+03   3.791982e-09 
  7.111000e+03   5.418809e-09 
  7.112000e+03   4.629630e-09 
  7.113000e+03   4.744671e-09 
  7.114000e+03   4.164169e-09 
  7.115000e+03   4.768412e-09 
  7.116000e+03   4.994881e-09 
  7.117000e+03   4.683566e-09 
  7.118000e+03   5.775176e-09 
  7.119000e+03   6.059996e-09 
  7.120000e+03   5.205151e-09 
  7.121000e+03   4.586337e-09 
  7.122000e+03   4.462274e-09 
  7.123000e+03   5.113709e-09 
  7.124000e+03   5.545150e-09 
  7.125000e+03   5.520663e-09 
  7.126000e+03   5.506495e-09 
  7.127000e+03   4.692427e-09 
  7.128000e+03   4.643586e-09 
  7.129000e+03   5.409266e-09 
  7.130000e+03   5.123062e-09 
  7.131000e+03   5.544238e-09 
  7.132000e+03   4.203195e-09 
  7.133000e+03   5.073018e-09 
  7.134000e+03   4.458831e-09 
  7.135000e+03   4.920806e-09 
  7.136000e+03   5.079529e-09 
  7.137000e+03   6.047750e-09 
  7.138000e+03   5.268013e-09 
  7.139000e+03   5.526640e-09 
  7.140000e+03   4.060140e-09 
  7.141000e+03   5.519183e-09 
  7.142000e+03   4.934420e-09 
  7.143000e+03   5.146730e-09 
  7.144000e+03   5.635778e-09 
  7.145000e+03   4.382556e-09 
  7.146000e+03   5.297164e-09 
  7.147000e+03   4.934217e-09 
  7.148000e+03   5.562510e-09 
  7.149000e+03   4.812080e-09 
  7.150000e+03   4.967247e-09 
  7.151000e+03   4.961692e-09 
  7.152000e+03   4.635280e-09 
  7.153000e+03   5.068755e-09 
  7.154000e+03   5.017930e-09 
  7.155000e+03   5.082704e-09 
  7.156000e+03   4.722685e-09 
  7.157000e+03   4.304597e-09 
  7.158000e+03   5.425992e-09 
  7.159000e+03   4.735603e-09 
  7.160000e+03   4.842306e-09 
  7.161000e+03   5.513758e-09 
  7.162000e+03   4.425935e-09 
  7.163000e+03   5.268187e-09 
  7.164000e+03   4.411682e-09 
  7.165000e+03   5.139030e-09 
  7.166000e+03   3.919960e-09 
  7.167000e+03   4.366778e-09 
  7.168000e+03   4.672614e-09 
  7.169000e+03   4.589592e-09 
  7.170000e+03   5.266769e-09 
  7.171000e+03   5.207540e-09 
  7.172000e+03   4.411869e-09 
  7.173000e+03   4.720609e-09 
  7.174000e+03   5.461582e-09 
  7.175000e+03   4.697607e-09 
  7.176000e+03   5.526682e-09 
  7.177000e+03   4.959011e-09 
  7.178000e+03   4.611731e-09 
  7.179000e+03   5.687118e-09 
  7.180000e+03   5.256970e-09 
  7.181000e+03   5.096207e-09 
  7.182000e+03   3.560353e-09 
  7.183000e+03   5.897832e-09 
  7.184000e+03   4.595287e-09 
  7.185000e+03   4.706793e-09 
  7.186000e+03   4.948338e-09 
  7.187000e+03   4.846053e-09 
  7.188000e+03   5.669166e-09 
  7.189000e+03   4.422310e-09 
  7.190000e+03   3.907287e-09 
  7.191000e+03   4.815932e-09 
  7.192000e+03   5.941069e-09 
  7.193000e+03   4.390581e-09 
  7.194000e+03   4.822850e-09 
  7.195000e+03   5.137236e-09 
  7.196000e+03   5.257860e-09 
  7.197000e+03   5.575409e-09 
  7.198000e+03   3.887085e-09 
  7.199000e+03   4.155941e-09 
  7.200000e+03   5.082707e-09 
