Input File: BG-LPF-C.78D
Measure Group: FFT
Measurement: FFT 2
Num of extracted Points: 801
Start Freq: 800 Hz
Span: 800 Hz
FFT Lines:  400 
Window: Uniform
Averaging Mode: RMS
Averaging Type: Linear / Fix Len
Number of Avg:   20
Overload reject: Off

    X[Hz]      Vrms/Hz^(1/... 
  8.000000e+02   5.089269e-09 
  8.010000e+02   5.080086e-09 
  8.020000e+02   5.670094e-09 
  8.030000e+02   4.896454e-09 
  8.040000e+02   5.316370e-09 
  8.050000e+02   4.349580e-09 
  8.060000e+02   4.700330e-09 
  8.070000e+02   4.767478e-09 
  8.080000e+02   3.578269e-09 
  8.090000e+02   4.988676e-09 
  8.100000e+02   5.310277e-09 
  8.110000e+02   4.745693e-09 
  8.120000e+02   5.270680e-09 
  8.130000e+02   6.013946e-09 
  8.140000e+02   4.583012e-09 
  8.150000e+02   4.889801e-09 
  8.160000e+02   5.474973e-09 
  8.170000e+02   4.599580e-09 
  8.180000e+02   4.157628e-09 
  8.190000e+02   4.771810e-09 
  8.200000e+02   5.382862e-09 
  8.210000e+02   4.750003e-09 
  8.220000e+02   4.129731e-09 
  8.230000e+02   4.683536e-09 
  8.240000e+02   4.442940e-09 
  8.250000e+02   4.899607e-09 
  8.260000e+02   4.785824e-09 
  8.270000e+02   4.100521e-09 
  8.280000e+02   4.899707e-09 
  8.290000e+02   4.629849e-09 
  8.300000e+02   4.405363e-09 
  8.310000e+02   4.465616e-09 
  8.320000e+02   4.119963e-09 
  8.330000e+02   4.731317e-09 
  8.340000e+02   4.693352e-09 
  8.350000e+02   4.129977e-09 
  8.360000e+02   4.983399e-09 
  8.370000e+02   6.111843e-09 
  8.380000e+02   5.374384e-09 
  8.390000e+02   5.339425e-09 
  8.400000e+02   4.786921e-09 
  8.410000e+02   5.173755e-09 
  8.420000e+02   4.459229e-09 
  8.430000e+02   3.771480e-09 
  8.440000e+02   4.055805e-09 
  8.450000e+02   5.667035e-09 
  8.460000e+02   4.927921e-09 
  8.470000e+02   4.018838e-09 
  8.480000e+02   4.948734e-09 
  8.490000e+02   4.562613e-09 
  8.500000e+02   5.391841e-09 
  8.510000e+02   4.020038e-09 
  8.520000e+02   5.308860e-09 
  8.530000e+02   4.239454e-09 
  8.540000e+02   4.687821e-09 
  8.550000e+02   6.040523e-09 
  8.560000e+02   4.663705e-09 
  8.570000e+02   6.376055e-09 
  8.580000e+02   5.057144e-09 
  8.590000e+02   4.698934e-09 
  8.600000e+02   4.745930e-09 
  8.610000e+02   5.714128e-09 
  8.620000e+02   5.860586e-09 
  8.630000e+02   5.500014e-09 
  8.640000e+02   3.289464e-09 
  8.650000e+02   5.145116e-09 
  8.660000e+02   4.260437e-09 
  8.670000e+02   4.510487e-09 
  8.680000e+02   4.694293e-09 
  8.690000e+02   3.867589e-09 
  8.700000e+02   3.884574e-09 
  8.710000e+02   5.584575e-09 
  8.720000e+02   4.359459e-09 
  8.730000e+02   4.985639e-09 
  8.740000e+02   4.093746e-09 
  8.750000e+02   5.283677e-09 
  8.760000e+02   4.771078e-09 
  8.770000e+02   5.474155e-09 
  8.780000e+02   5.254252e-09 
  8.790000e+02   5.109911e-09 
  8.800000e+02   5.023953e-09 
  8.810000e+02   4.652203e-09 
  8.820000e+02   5.228656e-09 
  8.830000e+02   4.889531e-09 
  8.840000e+02   3.921318e-09 
  8.850000e+02   4.944218e-09 
  8.860000e+02   3.741940e-09 
  8.870000e+02   5.964792e-09 
  8.880000e+02   5.007018e-09 
  8.890000e+02   5.375121e-09 
  8.900000e+02   4.358406e-09 
  8.910000e+02   5.384856e-09 
  8.920000e+02   5.063120e-09 
  8.930000e+02   4.307870e-09 
  8.940000e+02   4.950847e-09 
  8.950000e+02   4.852668e-09 
  8.960000e+02   4.661285e-09 
  8.970000e+02   4.134648e-09 
  8.980000e+02   6.192394e-09 
  8.990000e+02   4.292449e-09 
  9.000000e+02   4.388439e-09 
  9.010000e+02   4.655328e-09 
  9.020000e+02   5.073205e-09 
  9.030000e+02   4.707652e-09 
  9.040000e+02   5.028197e-09 
  9.050000e+02   5.253208e-09 
  9.060000e+02   5.080730e-09 
  9.070000e+02   4.689474e-09 
  9.080000e+02   5.175854e-09 
  9.090000e+02   5.572610e-09 
  9.100000e+02   4.795294e-09 
  9.110000e+02   4.738231e-09 
  9.120000e+02   3.529540e-09 
  9.130000e+02   4.787668e-09 
  9.140000e+02   4.434745e-09 
  9.150000e+02   5.178209e-09 
  9.160000e+02   4.617827e-09 
  9.170000e+02   4.827824e-09 
  9.180000e+02   5.063250e-09 
  9.190000e+02   4.854445e-09 
  9.200000e+02   4.723399e-09 
  9.210000e+02   4.831974e-09 
  9.220000e+02   4.672306e-09 
  9.230000e+02   4.287624e-09 
  9.240000e+02   3.893889e-09 
  9.250000e+02   5.223940e-09 
  9.260000e+02   4.822188e-09 
  9.270000e+02   4.728070e-09 
  9.280000e+02   5.032252e-09 
  9.290000e+02   4.732314e-09 
  9.300000e+02   4.289227e-09 
  9.310000e+02   4.097596e-09 
  9.320000e+02   4.603836e-09 
  9.330000e+02   5.331471e-09 
  9.340000e+02   4.806686e-09 
  9.350000e+02   4.820188e-09 
  9.360000e+02   4.795832e-09 
  9.370000e+02   4.835807e-09 
  9.380000e+02   5.368523e-09 
  9.390000e+02   4.769089e-09 
  9.400000e+02   4.500416e-09 
  9.410000e+02   5.188949e-09 
  9.420000e+02   4.320266e-09 
  9.430000e+02   5.007084e-09 
  9.440000e+02   5.050028e-09 
  9.450000e+02   6.338106e-09 
  9.460000e+02   5.264464e-09 
  9.470000e+02   4.778305e-09 
  9.480000e+02   5.373670e-09 
  9.490000e+02   4.645780e-09 
  9.500000e+02   4.075062e-09 
  9.510000e+02   4.593060e-09 
  9.520000e+02   5.363169e-09 
  9.530000e+02   4.375632e-09 
  9.540000e+02   4.977309e-09 
  9.550000e+02   4.006638e-09 
  9.560000e+02   5.421374e-09 
  9.570000e+02   4.708934e-09 
  9.580000e+02   4.908709e-09 
  9.590000e+02   5.653037e-09 
  9.600000e+02   4.294231e-09 
  9.610000e+02   5.256558e-09 
  9.620000e+02   6.142580e-09 
  9.630000e+02   4.330700e-09 
  9.640000e+02   4.662956e-09 
  9.650000e+02   4.791928e-09 
  9.660000e+02   4.186058e-09 
  9.670000e+02   5.179992e-09 
  9.680000e+02   4.100930e-09 
  9.690000e+02   4.898006e-09 
  9.700000e+02   4.899385e-09 
  9.710000e+02   5.015160e-09 
  9.720000e+02   3.480897e-09 
  9.730000e+02   5.119836e-09 
  9.740000e+02   4.218632e-09 
  9.750000e+02   4.646119e-09 
  9.760000e+02   4.955246e-09 
  9.770000e+02   5.025358e-09 
  9.780000e+02   4.917466e-09 
  9.790000e+02   5.133024e-09 
  9.800000e+02   5.220592e-09 
  9.810000e+02   4.032320e-09 
  9.820000e+02   4.376024e-09 
  9.830000e+02   5.278904e-09 
  9.840000e+02   4.543875e-09 
  9.850000e+02   3.858446e-09 
  9.860000e+02   3.896470e-09 
  9.870000e+02   5.184092e-09 
  9.880000e+02   5.116041e-09 
  9.890000e+02   4.121232e-09 
  9.900000e+02   4.435067e-09 
  9.910000e+02   5.038278e-09 
  9.920000e+02   5.151463e-09 
  9.930000e+02   4.824663e-09 
  9.940000e+02   4.889990e-09 
  9.950000e+02   5.490377e-09 
  9.960000e+02   4.746205e-09 
  9.970000e+02   5.066788e-09 
  9.980000e+02   4.339537e-09 
  9.990000e+02   5.001816e-09 
  1.000000e+03   5.122005e-09 
  1.001000e+03   5.225120e-09 
  1.002000e+03   5.288255e-09 
  1.003000e+03   4.182425e-09 
  1.004000e+03   5.975792e-09 
  1.005000e+03   4.836432e-09 
  1.006000e+03   5.877662e-09 
  1.007000e+03   3.804925e-09 
  1.008000e+03   4.439264e-09 
  1.009000e+03   5.374904e-09 
  1.010000e+03   5.151592e-09 
  1.011000e+03   4.899709e-09 
  1.012000e+03   5.231080e-09 
  1.013000e+03   5.736388e-09 
  1.014000e+03   4.606870e-09 
  1.015000e+03   6.342605e-09 
  1.016000e+03   5.056333e-09 
  1.017000e+03   4.929638e-09 
  1.018000e+03   5.094275e-09 
  1.019000e+03   5.443187e-09 
  1.020000e+03   5.110519e-09 
  1.021000e+03   4.903788e-09 
  1.022000e+03   4.108469e-09 
  1.023000e+03   4.066452e-09 
  1.024000e+03   4.365776e-09 
  1.025000e+03   4.255715e-09 
  1.026000e+03   4.334772e-09 
  1.027000e+03   5.286997e-09 
  1.028000e+03   4.889517e-09 
  1.029000e+03   4.481790e-09 
  1.030000e+03   5.405886e-09 
  1.031000e+03   5.734226e-09 
  1.032000e+03   4.725772e-09 
  1.033000e+03   5.659401e-09 
  1.034000e+03   5.516964e-09 
  1.035000e+03   4.453106e-09 
  1.036000e+03   4.362863e-09 
  1.037000e+03   4.711289e-09 
  1.038000e+03   5.791551e-09 
  1.039000e+03   5.032322e-09 
  1.040000e+03   5.946119e-09 
  1.041000e+03   4.950829e-09 
  1.042000e+03   5.262714e-09 
  1.043000e+03   3.981842e-09 
  1.044000e+03   4.729226e-09 
  1.045000e+03   4.891078e-09 
  1.046000e+03   4.225406e-09 
  1.047000e+03   5.886237e-09 
  1.048000e+03   4.853035e-09 
  1.049000e+03   5.352964e-09 
  1.050000e+03   5.293473e-09 
  1.051000e+03   4.377807e-09 
  1.052000e+03   5.192268e-09 
  1.053000e+03   4.251338e-09 
  1.054000e+03   4.387431e-09 
  1.055000e+03   4.254320e-09 
  1.056000e+03   4.984651e-09 
  1.057000e+03   4.548735e-09 
  1.058000e+03   4.666498e-09 
  1.059000e+03   4.764572e-09 
  1.060000e+03   5.078296e-09 
  1.061000e+03   4.920921e-09 
  1.062000e+03   4.673947e-09 
  1.063000e+03   5.268135e-09 
  1.064000e+03   5.397656e-09 
  1.065000e+03   4.530270e-09 
  1.066000e+03   5.473597e-09 
  1.067000e+03   4.699217e-09 
  1.068000e+03   4.512907e-09 
  1.069000e+03   4.748583e-09 
  1.070000e+03   5.689182e-09 
  1.071000e+03   4.583979e-09 
  1.072000e+03   5.566100e-09 
  1.073000e+03   5.791538e-09 
  1.074000e+03   4.145571e-09 
  1.075000e+03   5.272621e-09 
  1.076000e+03   5.005751e-09 
  1.077000e+03   5.599448e-09 
  1.078000e+03   4.481349e-09 
  1.079000e+03   4.997672e-09 
  1.080000e+03   4.933819e-09 
  1.081000e+03   5.047540e-09 
  1.082000e+03   5.170754e-09 
  1.083000e+03   4.816917e-09 
  1.084000e+03   5.101098e-09 
  1.085000e+03   5.310023e-09 
  1.086000e+03   4.548564e-09 
  1.087000e+03   5.204929e-09 
  1.088000e+03   5.182461e-09 
  1.089000e+03   4.471134e-09 
  1.090000e+03   5.881026e-09 
  1.091000e+03   5.238833e-09 
  1.092000e+03   4.788594e-09 
  1.093000e+03   5.568129e-09 
  1.094000e+03   4.238079e-09 
  1.095000e+03   4.881956e-09 
  1.096000e+03   4.971094e-09 
  1.097000e+03   4.847916e-09 
  1.098000e+03   5.249781e-09 
  1.099000e+03   4.438202e-09 
  1.100000e+03   5.446366e-09 
  1.101000e+03   4.507879e-09 
  1.102000e+03   5.684937e-09 
  1.103000e+03   4.182029e-09 
  1.104000e+03   4.368575e-09 
  1.105000e+03   3.968272e-09 
  1.106000e+03   4.457813e-09 
  1.107000e+03   5.591992e-09 
  1.108000e+03   5.106436e-09 
  1.109000e+03   5.106633e-09 
  1.110000e+03   5.676759e-09 
  1.111000e+03   4.627806e-09 
  1.112000e+03   4.984923e-09 
  1.113000e+03   6.239721e-09 
  1.114000e+03   5.066398e-09 
  1.115000e+03   4.685966e-09 
  1.116000e+03   3.911166e-09 
  1.117000e+03   4.539855e-09 
  1.118000e+03   5.113735e-09 
  1.119000e+03   5.284249e-09 
  1.120000e+03   4.704036e-09 
  1.121000e+03   4.772000e-09 
  1.122000e+03   5.614599e-09 
  1.123000e+03   5.233025e-09 
  1.124000e+03   3.995734e-09 
  1.125000e+03   5.315966e-09 
  1.126000e+03   4.283462e-09 
  1.127000e+03   5.484833e-09 
  1.128000e+03   4.760955e-09 
  1.129000e+03   4.483990e-09 
  1.130000e+03   5.253931e-09 
  1.131000e+03   4.961914e-09 
  1.132000e+03   4.571231e-09 
  1.133000e+03   4.731255e-09 
  1.134000e+03   4.960911e-09 
  1.135000e+03   5.096749e-09 
  1.136000e+03   5.453241e-09 
  1.137000e+03   5.446813e-09 
  1.138000e+03   4.964125e-09 
  1.139000e+03   5.674494e-09 
  1.140000e+03   4.755877e-09 
  1.141000e+03   4.845693e-09 
  1.142000e+03   5.478486e-09 
  1.143000e+03   5.004398e-09 
  1.144000e+03   5.053836e-09 
  1.145000e+03   6.231222e-09 
  1.146000e+03   5.459855e-09 
  1.147000e+03   5.103488e-09 
  1.148000e+03   5.595557e-09 
  1.149000e+03   4.661302e-09 
  1.150000e+03   5.386252e-09 
  1.151000e+03   4.731248e-09 
  1.152000e+03   4.802392e-09 
  1.153000e+03   5.626401e-09 
  1.154000e+03   4.736311e-09 
  1.155000e+03   4.931905e-09 
  1.156000e+03   6.163706e-09 
  1.157000e+03   5.414191e-09 
  1.158000e+03   5.304567e-09 
  1.159000e+03   4.981618e-09 
  1.160000e+03   4.349114e-09 
  1.161000e+03   4.146165e-09 
  1.162000e+03   5.842201e-09 
  1.163000e+03   4.828837e-09 
  1.164000e+03   4.668568e-09 
  1.165000e+03   4.892039e-09 
  1.166000e+03   4.232270e-09 
  1.167000e+03   5.307162e-09 
  1.168000e+03   5.414126e-09 
  1.169000e+03   4.795314e-09 
  1.170000e+03   5.346517e-09 
  1.171000e+03   5.700596e-09 
  1.172000e+03   4.690495e-09 
  1.173000e+03   5.589621e-09 
  1.174000e+03   4.882110e-09 
  1.175000e+03   5.009027e-09 
  1.176000e+03   5.420536e-09 
  1.177000e+03   4.725409e-09 
  1.178000e+03   5.437551e-09 
  1.179000e+03   4.008367e-09 
  1.180000e+03   5.379022e-09 
  1.181000e+03   5.325834e-09 
  1.182000e+03   5.379745e-09 
  1.183000e+03   4.938918e-09 
  1.184000e+03   4.685718e-09 
  1.185000e+03   5.601300e-09 
  1.186000e+03   4.434707e-09 
  1.187000e+03   4.292257e-09 
  1.188000e+03   4.426962e-09 
  1.189000e+03   4.542332e-09 
  1.190000e+03   4.097152e-09 
  1.191000e+03   4.961117e-09 
  1.192000e+03   5.302020e-09 
  1.193000e+03   5.090825e-09 
  1.194000e+03   5.828396e-09 
  1.195000e+03   4.952183e-09 
  1.196000e+03   5.371435e-09 
  1.197000e+03   5.195050e-09 
  1.198000e+03   4.571004e-09 
  1.199000e+03   5.452091e-09 
  1.200000e+03   4.322174e-09 
  1.201000e+03   4.576726e-09 
  1.202000e+03   5.361548e-09 
  1.203000e+03   4.492463e-09 
  1.204000e+03   5.073298e-09 
  1.205000e+03   5.634412e-09 
  1.206000e+03   4.129972e-09 
  1.207000e+03   4.108545e-09 
  1.208000e+03   4.613699e-09 
  1.209000e+03   4.196014e-09 
  1.210000e+03   4.511807e-09 
  1.211000e+03   4.374095e-09 
  1.212000e+03   4.956076e-09 
  1.213000e+03   4.980326e-09 
  1.214000e+03   5.474146e-09 
  1.215000e+03   4.551064e-09 
  1.216000e+03   5.643880e-09 
  1.217000e+03   5.303264e-09 
  1.218000e+03   5.342930e-09 
  1.219000e+03   5.186365e-09 
  1.220000e+03   4.401000e-09 
  1.221000e+03   5.955096e-09 
  1.222000e+03   5.328842e-09 
  1.223000e+03   4.982589e-09 
  1.224000e+03   4.399847e-09 
  1.225000e+03   5.448806e-09 
  1.226000e+03   4.678564e-09 
  1.227000e+03   4.521567e-09 
  1.228000e+03   4.733632e-09 
  1.229000e+03   5.734353e-09 
  1.230000e+03   5.406639e-09 
  1.231000e+03   5.454562e-09 
  1.232000e+03   4.407448e-09 
  1.233000e+03   5.328941e-09 
  1.234000e+03   5.628996e-09 
  1.235000e+03   4.082751e-09 
  1.236000e+03   4.534256e-09 
  1.237000e+03   5.182488e-09 
  1.238000e+03   3.259444e-09 
  1.239000e+03   5.046087e-09 
  1.240000e+03   6.414349e-09 
  1.241000e+03   5.234824e-09 
  1.242000e+03   4.718028e-09 
  1.243000e+03   4.768555e-09 
  1.244000e+03   5.703686e-09 
  1.245000e+03   4.489832e-09 
  1.246000e+03   5.071571e-09 
  1.247000e+03   4.801510e-09 
  1.248000e+03   3.591359e-09 
  1.249000e+03   4.542376e-09 
  1.250000e+03   4.387379e-09 
  1.251000e+03   4.843378e-09 
  1.252000e+03   4.817359e-09 
  1.253000e+03   5.649255e-09 
  1.254000e+03   5.233555e-09 
  1.255000e+03   3.709161e-09 
  1.256000e+03   4.849759e-09 
  1.257000e+03   4.698833e-09 
  1.258000e+03   4.430218e-09 
  1.259000e+03   3.987305e-09 
  1.260000e+03   4.591271e-09 
  1.261000e+03   5.639273e-09 
  1.262000e+03   5.702246e-09 
  1.263000e+03   5.269646e-09 
  1.264000e+03   4.404078e-09 
  1.265000e+03   4.119282e-09 
  1.266000e+03   4.638371e-09 
  1.267000e+03   5.313966e-09 
  1.268000e+03   4.472957e-09 
  1.269000e+03   3.959795e-09 
  1.270000e+03   4.581337e-09 
  1.271000e+03   5.881609e-09 
  1.272000e+03   4.896862e-09 
  1.273000e+03   4.928419e-09 
  1.274000e+03   5.957382e-09 
  1.275000e+03   4.632942e-09 
  1.276000e+03   4.694337e-09 
  1.277000e+03   5.821741e-09 
  1.278000e+03   4.522745e-09 
  1.279000e+03   5.360377e-09 
  1.280000e+03   3.593307e-09 
  1.281000e+03   4.904039e-09 
  1.282000e+03   4.991839e-09 
  1.283000e+03   4.831841e-09 
  1.284000e+03   4.864968e-09 
  1.285000e+03   4.637331e-09 
  1.286000e+03   5.014007e-09 
  1.287000e+03   4.922561e-09 
  1.288000e+03   5.097520e-09 
  1.289000e+03   4.644965e-09 
  1.290000e+03   4.594934e-09 
  1.291000e+03   5.180549e-09 
  1.292000e+03   4.771298e-09 
  1.293000e+03   5.427247e-09 
  1.294000e+03   6.243781e-09 
  1.295000e+03   4.044218e-09 
  1.296000e+03   4.931373e-09 
  1.297000e+03   5.624075e-09 
  1.298000e+03   5.369801e-09 
  1.299000e+03   5.604456e-09 
  1.300000e+03   5.229435e-09 
  1.301000e+03   4.923905e-09 
  1.302000e+03   4.493799e-09 
  1.303000e+03   5.184865e-09 
  1.304000e+03   5.161047e-09 
  1.305000e+03   5.137961e-09 
  1.306000e+03   5.237692e-09 
  1.307000e+03   4.411905e-09 
  1.308000e+03   4.726835e-09 
  1.309000e+03   4.664564e-09 
  1.310000e+03   5.092288e-09 
  1.311000e+03   4.810507e-09 
  1.312000e+03   4.549511e-09 
  1.313000e+03   4.470786e-09 
  1.314000e+03   4.898416e-09 
  1.315000e+03   4.991599e-09 
  1.316000e+03   6.397427e-09 
  1.317000e+03   4.006586e-09 
  1.318000e+03   5.020574e-09 
  1.319000e+03   3.786913e-09 
  1.320000e+03   4.182384e-09 
  1.321000e+03   4.202411e-09 
  1.322000e+03   4.806756e-09 
  1.323000e+03   3.910534e-09 
  1.324000e+03   4.679819e-09 
  1.325000e+03   5.057143e-09 
  1.326000e+03   3.902345e-09 
  1.327000e+03   5.937144e-09 
  1.328000e+03   5.477847e-09 
  1.329000e+03   4.636991e-09 
  1.330000e+03   4.481504e-09 
  1.331000e+03   5.231612e-09 
  1.332000e+03   4.951736e-09 
  1.333000e+03   4.975020e-09 
  1.334000e+03   5.067503e-09 
  1.335000e+03   5.091713e-09 
  1.336000e+03   4.612999e-09 
  1.337000e+03   5.464957e-09 
  1.338000e+03   5.378050e-09 
  1.339000e+03   4.967782e-09 
  1.340000e+03   6.569086e-09 
  1.341000e+03   4.806681e-09 
  1.342000e+03   4.271019e-09 
  1.343000e+03   4.231770e-09 
  1.344000e+03   5.193956e-09 
  1.345000e+03   4.592435e-09 
  1.346000e+03   4.393614e-09 
  1.347000e+03   4.480060e-09 
  1.348000e+03   5.542394e-09 
  1.349000e+03   5.472641e-09 
  1.350000e+03   3.932486e-09 
  1.351000e+03   4.070848e-09 
  1.352000e+03   5.753308e-09 
  1.353000e+03   4.336575e-09 
  1.354000e+03   4.512221e-09 
  1.355000e+03   5.356019e-09 
  1.356000e+03   5.696466e-09 
  1.357000e+03   6.072995e-09 
  1.358000e+03   4.913245e-09 
  1.359000e+03   4.990362e-09 
  1.360000e+03   4.587033e-09 
  1.361000e+03   4.412031e-09 
  1.362000e+03   5.275441e-09 
  1.363000e+03   4.367879e-09 
  1.364000e+03   5.354084e-09 
  1.365000e+03   5.110126e-09 
  1.366000e+03   4.601686e-09 
  1.367000e+03   4.834659e-09 
  1.368000e+03   5.057643e-09 
  1.369000e+03   5.394464e-09 
  1.370000e+03   5.089727e-09 
  1.371000e+03   4.813884e-09 
  1.372000e+03   4.343632e-09 
  1.373000e+03   5.238161e-09 
  1.374000e+03   5.105337e-09 
  1.375000e+03   4.663628e-09 
  1.376000e+03   5.295056e-09 
  1.377000e+03   5.710128e-09 
  1.378000e+03   6.111702e-09 
  1.379000e+03   4.371059e-09 
  1.380000e+03   4.447280e-09 
  1.381000e+03   4.596396e-09 
  1.382000e+03   5.345342e-09 
  1.383000e+03   5.424054e-09 
  1.384000e+03   5.129823e-09 
  1.385000e+03   3.730944e-09 
  1.386000e+03   5.651426e-09 
  1.387000e+03   5.372326e-09 
  1.388000e+03   4.618058e-09 
  1.389000e+03   4.611064e-09 
  1.390000e+03   5.806061e-09 
  1.391000e+03   5.085431e-09 
  1.392000e+03   4.891198e-09 
  1.393000e+03   4.411129e-09 
  1.394000e+03   5.213875e-09 
  1.395000e+03   4.759236e-09 
  1.396000e+03   4.214591e-09 
  1.397000e+03   4.527753e-09 
  1.398000e+03   4.887286e-09 
  1.399000e+03   4.704817e-09 
  1.400000e+03   4.831170e-09 
  1.401000e+03   5.489707e-09 
  1.402000e+03   4.188788e-09 
  1.403000e+03   4.301890e-09 
  1.404000e+03   5.378409e-09 
  1.405000e+03   4.667033e-09 
  1.406000e+03   4.602422e-09 
  1.407000e+03   4.982150e-09 
  1.408000e+03   4.532861e-09 
  1.409000e+03   4.054045e-09 
  1.410000e+03   5.273358e-09 
  1.411000e+03   5.517016e-09 
  1.412000e+03   4.636817e-09 
  1.413000e+03   3.794536e-09 
  1.414000e+03   4.453177e-09 
  1.415000e+03   5.246304e-09 
  1.416000e+03   4.434642e-09 
  1.417000e+03   4.608594e-09 
  1.418000e+03   4.663188e-09 
  1.419000e+03   5.252452e-09 
  1.420000e+03   5.045036e-09 
  1.421000e+03   4.523479e-09 
  1.422000e+03   4.965385e-09 
  1.423000e+03   4.413835e-09 
  1.424000e+03   4.610487e-09 
  1.425000e+03   5.552454e-09 
  1.426000e+03   5.673946e-09 
  1.427000e+03   5.517626e-09 
  1.428000e+03   5.014571e-09 
  1.429000e+03   4.568585e-09 
  1.430000e+03   5.582201e-09 
  1.431000e+03   4.711723e-09 
  1.432000e+03   4.212848e-09 
  1.433000e+03   5.168856e-09 
  1.434000e+03   5.457192e-09 
  1.435000e+03   5.861652e-09 
  1.436000e+03   4.020174e-09 
  1.437000e+03   4.993352e-09 
  1.438000e+03   4.556040e-09 
  1.439000e+03   4.663257e-09 
  1.440000e+03   4.560237e-09 
  1.441000e+03   4.928062e-09 
  1.442000e+03   4.678933e-09 
  1.443000e+03   5.367943e-09 
  1.444000e+03   5.153033e-09 
  1.445000e+03   4.639910e-09 
  1.446000e+03   3.762227e-09 
  1.447000e+03   4.148316e-09 
  1.448000e+03   4.055377e-09 
  1.449000e+03   5.175390e-09 
  1.450000e+03   4.610108e-09 
  1.451000e+03   4.046879e-09 
  1.452000e+03   4.433296e-09 
  1.453000e+03   5.373840e-09 
  1.454000e+03   4.560319e-09 
  1.455000e+03   5.011059e-09 
  1.456000e+03   5.337740e-09 
  1.457000e+03   5.091420e-09 
  1.458000e+03   4.380017e-09 
  1.459000e+03   5.964958e-09 
  1.460000e+03   4.989786e-09 
  1.461000e+03   5.306879e-09 
  1.462000e+03   4.035209e-09 
  1.463000e+03   5.175993e-09 
  1.464000e+03   4.625588e-09 
  1.465000e+03   5.330305e-09 
  1.466000e+03   5.355199e-09 
  1.467000e+03   4.951081e-09 
  1.468000e+03   4.335492e-09 
  1.469000e+03   5.599713e-09 
  1.470000e+03   5.770636e-09 
  1.471000e+03   5.484954e-09 
  1.472000e+03   4.072171e-09 
  1.473000e+03   5.106513e-09 
  1.474000e+03   4.396296e-09 
  1.475000e+03   4.859902e-09 
  1.476000e+03   3.854317e-09 
  1.477000e+03   5.240725e-09 
  1.478000e+03   4.655138e-09 
  1.479000e+03   4.176945e-09 
  1.480000e+03   4.821649e-09 
  1.481000e+03   4.468424e-09 
  1.482000e+03   5.028710e-09 
  1.483000e+03   5.054295e-09 
  1.484000e+03   4.550258e-09 
  1.485000e+03   4.803825e-09 
  1.486000e+03   5.063574e-09 
  1.487000e+03   6.282868e-09 
  1.488000e+03   4.115248e-09 
  1.489000e+03   4.340757e-09 
  1.490000e+03   4.929364e-09 
  1.491000e+03   6.046812e-09 
  1.492000e+03   4.418879e-09 
  1.493000e+03   5.133068e-09 
  1.494000e+03   5.157681e-09 
  1.495000e+03   5.744400e-09 
  1.496000e+03   5.187302e-09 
  1.497000e+03   5.229831e-09 
  1.498000e+03   5.269288e-09 
  1.499000e+03   4.050188e-09 
  1.500000e+03   4.656923e-09 
  1.501000e+03   4.454461e-09 
  1.502000e+03   5.317493e-09 
  1.503000e+03   4.609300e-09 
  1.504000e+03   6.331851e-09 
  1.505000e+03   4.705762e-09 
  1.506000e+03   5.394956e-09 
  1.507000e+03   5.136537e-09 
  1.508000e+03   4.928550e-09 
  1.509000e+03   5.159194e-09 
  1.510000e+03   6.713180e-09 
  1.511000e+03   5.219443e-09 
  1.512000e+03   4.289951e-09 
  1.513000e+03   5.312661e-09 
  1.514000e+03   4.955373e-09 
  1.515000e+03   4.921288e-09 
  1.516000e+03   5.162748e-09 
  1.517000e+03   5.484178e-09 
  1.518000e+03   5.160871e-09 
  1.519000e+03   4.392250e-09 
  1.520000e+03   5.332974e-09 
  1.521000e+03   5.695816e-09 
  1.522000e+03   5.499759e-09 
  1.523000e+03   5.969103e-09 
  1.524000e+03   4.722765e-09 
  1.525000e+03   5.429270e-09 
  1.526000e+03   4.308633e-09 
  1.527000e+03   4.885087e-09 
  1.528000e+03   5.262505e-09 
  1.529000e+03   4.407371e-09 
  1.530000e+03   5.807731e-09 
  1.531000e+03   5.651124e-09 
  1.532000e+03   4.234837e-09 
  1.533000e+03   5.021216e-09 
  1.534000e+03   5.214171e-09 
  1.535000e+03   5.352225e-09 
  1.536000e+03   4.986137e-09 
  1.537000e+03   4.452403e-09 
  1.538000e+03   3.486728e-09 
  1.539000e+03   4.989151e-09 
  1.540000e+03   4.323275e-09 
  1.541000e+03   5.239827e-09 
  1.542000e+03   5.028126e-09 
  1.543000e+03   4.643598e-09 
  1.544000e+03   4.874130e-09 
  1.545000e+03   3.708602e-09 
  1.546000e+03   5.505400e-09 
  1.547000e+03   4.877109e-09 
  1.548000e+03   4.944555e-09 
  1.549000e+03   5.040736e-09 
  1.550000e+03   5.574584e-09 
  1.551000e+03   5.289796e-09 
  1.552000e+03   4.459229e-09 
  1.553000e+03   5.223948e-09 
  1.554000e+03   4.548450e-09 
  1.555000e+03   4.235253e-09 
  1.556000e+03   5.537197e-09 
  1.557000e+03   4.827921e-09 
  1.558000e+03   5.806099e-09 
  1.559000e+03   5.104967e-09 
  1.560000e+03   5.248117e-09 
  1.561000e+03   5.503189e-09 
  1.562000e+03   4.750357e-09 
  1.563000e+03   4.662390e-09 
  1.564000e+03   5.241639e-09 
  1.565000e+03   5.424894e-09 
  1.566000e+03   4.576838e-09 
  1.567000e+03   4.900498e-09 
  1.568000e+03   5.251474e-09 
  1.569000e+03   5.104404e-09 
  1.570000e+03   4.331159e-09 
  1.571000e+03   4.420484e-09 
  1.572000e+03   4.184105e-09 
  1.573000e+03   3.902511e-09 
  1.574000e+03   5.943225e-09 
  1.575000e+03   5.747141e-09 
  1.576000e+03   5.250616e-09 
  1.577000e+03   4.879304e-09 
  1.578000e+03   4.380057e-09 
  1.579000e+03   5.494258e-09 
  1.580000e+03   5.924095e-09 
  1.581000e+03   5.232937e-09 
  1.582000e+03   4.448725e-09 
  1.583000e+03   5.331857e-09 
  1.584000e+03   4.552482e-09 
  1.585000e+03   5.074872e-09 
  1.586000e+03   5.627740e-09 
  1.587000e+03   4.363096e-09 
  1.588000e+03   5.602680e-09 
  1.589000e+03   5.611173e-09 
  1.590000e+03   5.052704e-09 
  1.591000e+03   4.498461e-09 
  1.592000e+03   4.439141e-09 
  1.593000e+03   5.655456e-09 
  1.594000e+03   5.199603e-09 
  1.595000e+03   5.625628e-09 
  1.596000e+03   5.113433e-09 
  1.597000e+03   4.391191e-09 
  1.598000e+03   5.124513e-09 
  1.599000e+03   5.292454e-09 
  1.600000e+03   3.586230e-09 
