Input File: BG-LPF-K.78D
Measure Group: FFT
Measurement: FFT 2
Num of extracted Points: 801
Start Freq: 7.2 kHz
Span: 800 Hz
FFT Lines:  400 
Window: Uniform
Averaging Mode: RMS
Averaging Type: Linear / Fix Len
Number of Avg:   20
Overload reject: Off

    X[Hz]      Vrms/Hz^(1/... 
  7.200000e+03   4.240858e-09 
  7.201000e+03   4.241836e-09 
  7.202000e+03   4.924893e-09 
  7.203000e+03   5.171339e-09 
  7.204000e+03   4.209247e-09 
  7.205000e+03   5.036637e-09 
  7.206000e+03   5.006499e-09 
  7.207000e+03   4.964732e-09 
  7.208000e+03   4.648995e-09 
  7.209000e+03   4.663276e-09 
  7.210000e+03   4.873881e-09 
  7.211000e+03   4.649700e-09 
  7.212000e+03   4.892407e-09 
  7.213000e+03   4.688957e-09 
  7.214000e+03   4.631566e-09 
  7.215000e+03   4.340709e-09 
  7.216000e+03   5.374546e-09 
  7.217000e+03   5.172978e-09 
  7.218000e+03   4.898510e-09 
  7.219000e+03   6.001176e-09 
  7.220000e+03   5.637518e-09 
  7.221000e+03   5.332609e-09 
  7.222000e+03   4.266246e-09 
  7.223000e+03   4.013163e-09 
  7.224000e+03   4.597525e-09 
  7.225000e+03   5.385087e-09 
  7.226000e+03   5.118347e-09 
  7.227000e+03   4.177501e-09 
  7.228000e+03   4.411534e-09 
  7.229000e+03   5.527369e-09 
  7.230000e+03   5.331631e-09 
  7.231000e+03   4.762289e-09 
  7.232000e+03   5.519854e-09 
  7.233000e+03   5.186393e-09 
  7.234000e+03   5.126079e-09 
  7.235000e+03   5.349380e-09 
  7.236000e+03   5.117415e-09 
  7.237000e+03   4.638099e-09 
  7.238000e+03   5.661901e-09 
  7.239000e+03   5.510393e-09 
  7.240000e+03   4.550876e-09 
  7.241000e+03   4.811918e-09 
  7.242000e+03   4.578638e-09 
  7.243000e+03   4.930754e-09 
  7.244000e+03   5.031069e-09 
  7.245000e+03   5.891891e-09 
  7.246000e+03   5.337593e-09 
  7.247000e+03   5.022848e-09 
  7.248000e+03   4.356026e-09 
  7.249000e+03   5.050870e-09 
  7.250000e+03   6.193535e-09 
  7.251000e+03   4.713743e-09 
  7.252000e+03   5.014646e-09 
  7.253000e+03   5.443956e-09 
  7.254000e+03   5.319024e-09 
  7.255000e+03   4.596104e-09 
  7.256000e+03   4.714801e-09 
  7.257000e+03   4.711946e-09 
  7.258000e+03   4.328120e-09 
  7.259000e+03   5.846668e-09 
  7.260000e+03   5.142487e-09 
  7.261000e+03   5.754530e-09 
  7.262000e+03   4.211151e-09 
  7.263000e+03   4.802655e-09 
  7.264000e+03   4.241505e-09 
  7.265000e+03   5.980656e-09 
  7.266000e+03   4.729194e-09 
  7.267000e+03   6.818742e-09 
  7.268000e+03   5.542101e-09 
  7.269000e+03   4.249836e-09 
  7.270000e+03   5.829059e-09 
  7.271000e+03   5.149256e-09 
  7.272000e+03   4.071424e-09 
  7.273000e+03   4.632165e-09 
  7.274000e+03   4.782201e-09 
  7.275000e+03   4.496759e-09 
  7.276000e+03   4.930226e-09 
  7.277000e+03   4.066916e-09 
  7.278000e+03   4.882133e-09 
  7.279000e+03   5.139366e-09 
  7.280000e+03   4.350700e-09 
  7.281000e+03   4.663204e-09 
  7.282000e+03   5.276891e-09 
  7.283000e+03   4.802613e-09 
  7.284000e+03   4.697812e-09 
  7.285000e+03   4.847359e-09 
  7.286000e+03   4.624572e-09 
  7.287000e+03   5.082831e-09 
  7.288000e+03   3.570125e-09 
  7.289000e+03   4.513583e-09 
  7.290000e+03   5.538649e-09 
  7.291000e+03   4.974251e-09 
  7.292000e+03   5.112547e-09 
  7.293000e+03   5.349225e-09 
  7.294000e+03   4.821350e-09 
  7.295000e+03   4.805941e-09 
  7.296000e+03   5.616370e-09 
  7.297000e+03   5.109722e-09 
  7.298000e+03   4.005133e-09 
  7.299000e+03   5.135340e-09 
  7.300000e+03   5.039273e-09 
  7.301000e+03   5.419600e-09 
  7.302000e+03   5.240581e-09 
  7.303000e+03   5.514520e-09 
  7.304000e+03   5.173550e-09 
  7.305000e+03   5.097553e-09 
  7.306000e+03   5.458007e-09 
  7.307000e+03   5.781194e-09 
  7.308000e+03   4.042757e-09 
  7.309000e+03   4.578882e-09 
  7.310000e+03   4.392136e-09 
  7.311000e+03   5.449705e-09 
  7.312000e+03   5.377998e-09 
  7.313000e+03   4.170964e-09 
  7.314000e+03   5.428999e-09 
  7.315000e+03   4.702822e-09 
  7.316000e+03   5.640166e-09 
  7.317000e+03   5.405760e-09 
  7.318000e+03   5.065406e-09 
  7.319000e+03   4.399942e-09 
  7.320000e+03   5.260416e-09 
  7.321000e+03   5.993167e-09 
  7.322000e+03   4.901481e-09 
  7.323000e+03   4.656072e-09 
  7.324000e+03   4.925502e-09 
  7.325000e+03   4.270824e-09 
  7.326000e+03   4.771339e-09 
  7.327000e+03   5.454792e-09 
  7.328000e+03   4.468833e-09 
  7.329000e+03   4.609508e-09 
  7.330000e+03   4.510927e-09 
  7.331000e+03   4.877414e-09 
  7.332000e+03   5.801374e-09 
  7.333000e+03   5.501945e-09 
  7.334000e+03   4.672001e-09 
  7.335000e+03   4.809509e-09 
  7.336000e+03   4.839087e-09 
  7.337000e+03   5.019227e-09 
  7.338000e+03   5.289014e-09 
  7.339000e+03   4.766423e-09 
  7.340000e+03   5.014011e-09 
  7.341000e+03   5.067293e-09 
  7.342000e+03   5.188934e-09 
  7.343000e+03   5.316324e-09 
  7.344000e+03   4.748439e-09 
  7.345000e+03   4.583655e-09 
  7.346000e+03   6.046884e-09 
  7.347000e+03   5.833442e-09 
  7.348000e+03   6.072015e-09 
  7.349000e+03   4.580813e-09 
  7.350000e+03   4.639138e-09 
  7.351000e+03   5.341079e-09 
  7.352000e+03   4.655291e-09 
  7.353000e+03   4.740216e-09 
  7.354000e+03   4.791498e-09 
  7.355000e+03   5.094863e-09 
  7.356000e+03   4.684015e-09 
  7.357000e+03   5.532721e-09 
  7.358000e+03   4.583387e-09 
  7.359000e+03   5.102191e-09 
  7.360000e+03   4.354640e-09 
  7.361000e+03   5.188233e-09 
  7.362000e+03   5.477882e-09 
  7.363000e+03   5.294521e-09 
  7.364000e+03   4.739784e-09 
  7.365000e+03   5.582005e-09 
  7.366000e+03   5.376944e-09 
  7.367000e+03   4.476619e-09 
  7.368000e+03   4.923097e-09 
  7.369000e+03   5.380234e-09 
  7.370000e+03   5.722267e-09 
  7.371000e+03   5.046614e-09 
  7.372000e+03   4.918980e-09 
  7.373000e+03   5.179740e-09 
  7.374000e+03   4.764895e-09 
  7.375000e+03   5.360862e-09 
  7.376000e+03   4.706210e-09 
  7.377000e+03   4.510132e-09 
  7.378000e+03   5.164686e-09 
  7.379000e+03   5.037302e-09 
  7.380000e+03   5.609245e-09 
  7.381000e+03   5.767897e-09 
  7.382000e+03   4.501362e-09 
  7.383000e+03   4.088009e-09 
  7.384000e+03   4.962898e-09 
  7.385000e+03   5.814191e-09 
  7.386000e+03   5.494135e-09 
  7.387000e+03   5.232091e-09 
  7.388000e+03   5.277445e-09 
  7.389000e+03   4.405206e-09 
  7.390000e+03   5.293805e-09 
  7.391000e+03   3.877564e-09 
  7.392000e+03   5.158376e-09 
  7.393000e+03   5.514575e-09 
  7.394000e+03   4.697357e-09 
  7.395000e+03   4.460678e-09 
  7.396000e+03   4.826723e-09 
  7.397000e+03   4.848377e-09 
  7.398000e+03   5.306392e-09 
  7.399000e+03   4.926509e-09 
  7.400000e+03   4.738399e-09 
  7.401000e+03   5.091090e-09 
  7.402000e+03   4.489547e-09 
  7.403000e+03   4.077977e-09 
  7.404000e+03   4.863343e-09 
  7.405000e+03   5.185260e-09 
  7.406000e+03   5.072771e-09 
  7.407000e+03   5.162822e-09 
  7.408000e+03   4.876669e-09 
  7.409000e+03   5.275684e-09 
  7.410000e+03   4.789616e-09 
  7.411000e+03   5.727293e-09 
  7.412000e+03   4.672715e-09 
  7.413000e+03   4.676009e-09 
  7.414000e+03   4.508790e-09 
  7.415000e+03   4.839719e-09 
  7.416000e+03   5.693761e-09 
  7.417000e+03   4.157456e-09 
  7.418000e+03   4.673630e-09 
  7.419000e+03   4.871780e-09 
  7.420000e+03   3.735700e-09 
  7.421000e+03   5.493475e-09 
  7.422000e+03   5.184615e-09 
  7.423000e+03   4.753864e-09 
  7.424000e+03   5.142455e-09 
  7.425000e+03   5.404723e-09 
  7.426000e+03   4.655614e-09 
  7.427000e+03   5.445967e-09 
  7.428000e+03   4.757103e-09 
  7.429000e+03   5.381980e-09 
  7.430000e+03   4.415452e-09 
  7.431000e+03   4.375162e-09 
  7.432000e+03   4.744639e-09 
  7.433000e+03   5.292483e-09 
  7.434000e+03   5.231137e-09 
  7.435000e+03   5.821914e-09 
  7.436000e+03   5.346982e-09 
  7.437000e+03   4.693849e-09 
  7.438000e+03   6.021117e-09 
  7.439000e+03   5.253484e-09 
  7.440000e+03   5.494796e-09 
  7.441000e+03   4.795148e-09 
  7.442000e+03   4.378057e-09 
  7.443000e+03   4.835171e-09 
  7.444000e+03   4.237882e-09 
  7.445000e+03   4.085158e-09 
  7.446000e+03   4.786030e-09 
  7.447000e+03   4.546621e-09 
  7.448000e+03   4.778042e-09 
  7.449000e+03   4.469435e-09 
  7.450000e+03   4.388196e-09 
  7.451000e+03   4.495406e-09 
  7.452000e+03   4.475802e-09 
  7.453000e+03   5.156179e-09 
  7.454000e+03   5.499693e-09 
  7.455000e+03   5.029149e-09 
  7.456000e+03   5.218871e-09 
  7.457000e+03   4.765850e-09 
  7.458000e+03   4.196279e-09 
  7.459000e+03   5.377812e-09 
  7.460000e+03   4.761978e-09 
  7.461000e+03   4.944448e-09 
  7.462000e+03   4.928943e-09 
  7.463000e+03   5.244458e-09 
  7.464000e+03   5.164022e-09 
  7.465000e+03   4.578422e-09 
  7.466000e+03   4.514123e-09 
  7.467000e+03   6.225855e-09 
  7.468000e+03   5.471869e-09 
  7.469000e+03   4.813288e-09 
  7.470000e+03   4.882856e-09 
  7.471000e+03   4.915875e-09 
  7.472000e+03   4.584190e-09 
  7.473000e+03   5.132271e-09 
  7.474000e+03   5.717979e-09 
  7.475000e+03   4.536584e-09 
  7.476000e+03   5.658967e-09 
  7.477000e+03   4.328425e-09 
  7.478000e+03   5.432104e-09 
  7.479000e+03   5.114347e-09 
  7.480000e+03   5.031249e-09 
  7.481000e+03   4.413357e-09 
  7.482000e+03   4.687245e-09 
  7.483000e+03   5.319359e-09 
  7.484000e+03   4.361332e-09 
  7.485000e+03   4.195612e-09 
  7.486000e+03   4.875411e-09 
  7.487000e+03   5.178047e-09 
  7.488000e+03   4.864437e-09 
  7.489000e+03   4.593016e-09 
  7.490000e+03   4.694392e-09 
  7.491000e+03   4.803632e-09 
  7.492000e+03   4.001524e-09 
  7.493000e+03   5.595743e-09 
  7.494000e+03   4.639283e-09 
  7.495000e+03   5.022348e-09 
  7.496000e+03   5.891166e-09 
  7.497000e+03   4.925435e-09 
  7.498000e+03   4.474547e-09 
  7.499000e+03   5.118518e-09 
  7.500000e+03   4.727391e-09 
  7.501000e+03   5.719107e-09 
  7.502000e+03   4.267207e-09 
  7.503000e+03   6.001131e-09 
  7.504000e+03   5.399424e-09 
  7.505000e+03   4.829262e-09 
  7.506000e+03   4.810506e-09 
  7.507000e+03   4.804742e-09 
  7.508000e+03   4.755512e-09 
  7.509000e+03   4.691173e-09 
  7.510000e+03   5.195718e-09 
  7.511000e+03   5.080627e-09 
  7.512000e+03   4.834842e-09 
  7.513000e+03   4.586810e-09 
  7.514000e+03   4.856408e-09 
  7.515000e+03   4.881229e-09 
  7.516000e+03   4.904105e-09 
  7.517000e+03   5.511834e-09 
  7.518000e+03   5.103180e-09 
  7.519000e+03   5.560203e-09 
  7.520000e+03   5.785437e-09 
  7.521000e+03   5.327897e-09 
  7.522000e+03   5.109828e-09 
  7.523000e+03   4.548572e-09 
  7.524000e+03   5.253500e-09 
  7.525000e+03   4.372945e-09 
  7.526000e+03   4.485751e-09 
  7.527000e+03   4.426657e-09 
  7.528000e+03   5.251368e-09 
  7.529000e+03   4.849346e-09 
  7.530000e+03   4.583434e-09 
  7.531000e+03   5.031225e-09 
  7.532000e+03   4.955496e-09 
  7.533000e+03   4.898752e-09 
  7.534000e+03   4.588293e-09 
  7.535000e+03   5.003756e-09 
  7.536000e+03   3.833358e-09 
  7.537000e+03   5.393400e-09 
  7.538000e+03   5.058631e-09 
  7.539000e+03   5.071517e-09 
  7.540000e+03   5.694913e-09 
  7.541000e+03   4.936985e-09 
  7.542000e+03   5.152413e-09 
  7.543000e+03   5.450471e-09 
  7.544000e+03   5.457139e-09 
  7.545000e+03   5.396426e-09 
  7.546000e+03   4.668725e-09 
  7.547000e+03   5.800407e-09 
  7.548000e+03   5.379804e-09 
  7.549000e+03   4.244547e-09 
  7.550000e+03   4.526946e-09 
  7.551000e+03   4.842646e-09 
  7.552000e+03   3.632016e-09 
  7.553000e+03   3.914872e-09 
  7.554000e+03   5.092940e-09 
  7.555000e+03   5.953524e-09 
  7.556000e+03   4.518718e-09 
  7.557000e+03   4.995079e-09 
  7.558000e+03   4.167881e-09 
  7.559000e+03   6.283190e-09 
  7.560000e+03   4.954122e-09 
  7.561000e+03   5.226917e-09 
  7.562000e+03   5.009885e-09 
  7.563000e+03   4.248235e-09 
  7.564000e+03   5.550584e-09 
  7.565000e+03   4.717506e-09 
  7.566000e+03   4.779910e-09 
  7.567000e+03   4.551525e-09 
  7.568000e+03   5.243073e-09 
  7.569000e+03   5.251345e-09 
  7.570000e+03   4.261758e-09 
  7.571000e+03   4.349620e-09 
  7.572000e+03   4.541553e-09 
  7.573000e+03   5.542998e-09 
  7.574000e+03   5.254128e-09 
  7.575000e+03   4.769152e-09 
  7.576000e+03   5.066114e-09 
  7.577000e+03   5.258805e-09 
  7.578000e+03   5.210683e-09 
  7.579000e+03   4.121504e-09 
  7.580000e+03   5.125386e-09 
  7.581000e+03   5.530035e-09 
  7.582000e+03   5.685857e-09 
  7.583000e+03   4.803629e-09 
  7.584000e+03   5.154273e-09 
  7.585000e+03   5.359740e-09 
  7.586000e+03   4.464648e-09 
  7.587000e+03   4.481753e-09 
  7.588000e+03   5.223970e-09 
  7.589000e+03   5.600706e-09 
  7.590000e+03   4.762590e-09 
  7.591000e+03   5.481768e-09 
  7.592000e+03   5.802427e-09 
  7.593000e+03   5.225271e-09 
  7.594000e+03   3.799570e-09 
  7.595000e+03   6.165238e-09 
  7.596000e+03   4.579958e-09 
  7.597000e+03   4.182258e-09 
  7.598000e+03   5.827113e-09 
  7.599000e+03   4.677945e-09 
  7.600000e+03   4.911545e-09 
  7.601000e+03   4.059456e-09 
  7.602000e+03   4.137174e-09 
  7.603000e+03   5.254191e-09 
  7.604000e+03   4.964364e-09 
  7.605000e+03   4.814011e-09 
  7.606000e+03   5.802228e-09 
  7.607000e+03   4.198558e-09 
  7.608000e+03   4.922704e-09 
  7.609000e+03   5.477276e-09 
  7.610000e+03   4.943159e-09 
  7.611000e+03   4.767411e-09 
  7.612000e+03   4.423687e-09 
  7.613000e+03   4.549674e-09 
  7.614000e+03   4.861473e-09 
  7.615000e+03   4.313364e-09 
  7.616000e+03   5.454873e-09 
  7.617000e+03   5.450163e-09 
  7.618000e+03   5.604378e-09 
  7.619000e+03   4.961145e-09 
  7.620000e+03   4.607755e-09 
  7.621000e+03   5.762391e-09 
  7.622000e+03   4.198552e-09 
  7.623000e+03   4.107350e-09 
  7.624000e+03   5.343965e-09 
  7.625000e+03   4.934468e-09 
  7.626000e+03   4.908396e-09 
  7.627000e+03   4.956072e-09 
  7.628000e+03   5.537230e-09 
  7.629000e+03   4.669677e-09 
  7.630000e+03   5.757004e-09 
  7.631000e+03   4.062660e-09 
  7.632000e+03   5.294376e-09 
  7.633000e+03   6.049124e-09 
  7.634000e+03   4.416126e-09 
  7.635000e+03   5.663047e-09 
  7.636000e+03   4.975826e-09 
  7.637000e+03   4.901761e-09 
  7.638000e+03   4.565147e-09 
  7.639000e+03   4.459936e-09 
  7.640000e+03   4.310738e-09 
  7.641000e+03   4.822386e-09 
  7.642000e+03   3.887099e-09 
  7.643000e+03   4.547858e-09 
  7.644000e+03   5.137361e-09 
  7.645000e+03   5.249537e-09 
  7.646000e+03   5.581617e-09 
  7.647000e+03   4.884317e-09 
  7.648000e+03   5.122745e-09 
  7.649000e+03   5.532765e-09 
  7.650000e+03   5.498982e-09 
  7.651000e+03   4.605572e-09 
  7.652000e+03   5.656800e-09 
  7.653000e+03   5.173136e-09 
  7.654000e+03   4.868846e-09 
  7.655000e+03   5.755346e-09 
  7.656000e+03   5.325582e-09 
  7.657000e+03   4.842325e-09 
  7.658000e+03   5.926963e-09 
  7.659000e+03   4.848768e-09 
  7.660000e+03   4.330831e-09 
  7.661000e+03   4.805137e-09 
  7.662000e+03   4.881660e-09 
  7.663000e+03   5.307145e-09 
  7.664000e+03   5.842698e-09 
  7.665000e+03   4.412789e-09 
  7.666000e+03   6.084496e-09 
  7.667000e+03   4.177482e-09 
  7.668000e+03   4.566211e-09 
  7.669000e+03   5.066433e-09 
  7.670000e+03   5.029356e-09 
  7.671000e+03   4.726753e-09 
  7.672000e+03   5.825290e-09 
  7.673000e+03   5.035004e-09 
  7.674000e+03   4.261406e-09 
  7.675000e+03   5.774885e-09 
  7.676000e+03   4.068085e-09 
  7.677000e+03   4.951467e-09 
  7.678000e+03   5.649829e-09 
  7.679000e+03   6.103311e-09 
  7.680000e+03   3.653702e-09 
  7.681000e+03   5.932504e-09 
  7.682000e+03   5.127023e-09 
  7.683000e+03   4.678695e-09 
  7.684000e+03   5.135649e-09 
  7.685000e+03   5.480040e-09 
  7.686000e+03   4.781858e-09 
  7.687000e+03   4.769102e-09 
  7.688000e+03   5.253873e-09 
  7.689000e+03   6.133496e-09 
  7.690000e+03   4.475177e-09 
  7.691000e+03   4.931664e-09 
  7.692000e+03   4.616362e-09 
  7.693000e+03   5.248204e-09 
  7.694000e+03   5.129308e-09 
  7.695000e+03   5.054237e-09 
  7.696000e+03   4.490903e-09 
  7.697000e+03   4.591064e-09 
  7.698000e+03   5.109555e-09 
  7.699000e+03   5.071084e-09 
  7.700000e+03   5.146852e-09 
  7.701000e+03   4.678026e-09 
  7.702000e+03   5.246498e-09 
  7.703000e+03   4.769185e-09 
  7.704000e+03   4.428891e-09 
  7.705000e+03   5.061283e-09 
  7.706000e+03   5.233633e-09 
  7.707000e+03   4.562116e-09 
  7.708000e+03   4.438109e-09 
  7.709000e+03   4.617282e-09 
  7.710000e+03   4.930166e-09 
  7.711000e+03   5.283434e-09 
  7.712000e+03   5.034998e-09 
  7.713000e+03   4.851845e-09 
  7.714000e+03   4.489097e-09 
  7.715000e+03   4.685624e-09 
  7.716000e+03   4.316278e-09 
  7.717000e+03   4.788604e-09 
  7.718000e+03   4.994106e-09 
  7.719000e+03   5.514194e-09 
  7.720000e+03   4.487016e-09 
  7.721000e+03   3.954909e-09 
  7.722000e+03   5.670648e-09 
  7.723000e+03   4.761517e-09 
  7.724000e+03   4.640760e-09 
  7.725000e+03   4.138180e-09 
  7.726000e+03   4.740113e-09 
  7.727000e+03   5.141688e-09 
  7.728000e+03   3.841245e-09 
  7.729000e+03   5.058093e-09 
  7.730000e+03   5.755792e-09 
  7.731000e+03   4.151902e-09 
  7.732000e+03   4.640853e-09 
  7.733000e+03   6.069333e-09 
  7.734000e+03   5.152477e-09 
  7.735000e+03   5.079280e-09 
  7.736000e+03   5.498733e-09 
  7.737000e+03   5.045496e-09 
  7.738000e+03   5.040143e-09 
  7.739000e+03   4.576297e-09 
  7.740000e+03   4.065238e-09 
  7.741000e+03   4.685471e-09 
  7.742000e+03   4.920190e-09 
  7.743000e+03   4.142279e-09 
  7.744000e+03   4.860064e-09 
  7.745000e+03   4.389598e-09 
  7.746000e+03   4.909556e-09 
  7.747000e+03   5.773792e-09 
  7.748000e+03   4.211057e-09 
  7.749000e+03   4.802541e-09 
  7.750000e+03   4.750201e-09 
  7.751000e+03   4.354982e-09 
  7.752000e+03   5.449530e-09 
  7.753000e+03   4.398022e-09 
  7.754000e+03   5.160686e-09 
  7.755000e+03   4.968181e-09 
  7.756000e+03   4.555325e-09 
  7.757000e+03   4.726829e-09 
  7.758000e+03   4.503567e-09 
  7.759000e+03   5.068553e-09 
  7.760000e+03   3.688630e-09 
  7.761000e+03   4.761722e-09 
  7.762000e+03   3.936337e-09 
  7.763000e+03   4.139008e-09 
  7.764000e+03   4.717594e-09 
  7.765000e+03   5.381704e-09 
  7.766000e+03   4.997101e-09 
  7.767000e+03   4.612950e-09 
  7.768000e+03   5.405114e-09 
  7.769000e+03   4.142867e-09 
  7.770000e+03   5.553506e-09 
  7.771000e+03   3.735618e-09 
  7.772000e+03   4.176504e-09 
  7.773000e+03   4.919126e-09 
  7.774000e+03   3.803365e-09 
  7.775000e+03   5.060066e-09 
  7.776000e+03   5.150116e-09 
  7.777000e+03   5.547241e-09 
  7.778000e+03   4.342709e-09 
  7.779000e+03   5.250426e-09 
  7.780000e+03   5.074943e-09 
  7.781000e+03   5.890147e-09 
  7.782000e+03   5.688821e-09 
  7.783000e+03   4.353866e-09 
  7.784000e+03   4.537136e-09 
  7.785000e+03   5.342825e-09 
  7.786000e+03   4.767292e-09 
  7.787000e+03   4.514382e-09 
  7.788000e+03   5.140092e-09 
  7.789000e+03   5.773092e-09 
  7.790000e+03   5.018459e-09 
  7.791000e+03   5.324412e-09 
  7.792000e+03   4.870065e-09 
  7.793000e+03   5.038748e-09 
  7.794000e+03   4.105005e-09 
  7.795000e+03   4.988662e-09 
  7.796000e+03   4.999231e-09 
  7.797000e+03   4.754932e-09 
  7.798000e+03   3.872891e-09 
  7.799000e+03   4.651440e-09 
  7.800000e+03   4.968668e-09 
  7.801000e+03   5.282629e-09 
  7.802000e+03   5.401808e-09 
  7.803000e+03   5.373652e-09 
  7.804000e+03   5.711643e-09 
  7.805000e+03   5.317508e-09 
  7.806000e+03   4.347472e-09 
  7.807000e+03   5.416781e-09 
  7.808000e+03   5.797037e-09 
  7.809000e+03   4.892575e-09 
  7.810000e+03   5.160188e-09 
  7.811000e+03   5.770747e-09 
  7.812000e+03   5.370083e-09 
  7.813000e+03   6.039851e-09 
  7.814000e+03   4.581416e-09 
  7.815000e+03   4.209991e-09 
  7.816000e+03   5.034137e-09 
  7.817000e+03   5.449825e-09 
  7.818000e+03   4.529014e-09 
  7.819000e+03   4.908329e-09 
  7.820000e+03   5.373537e-09 
  7.821000e+03   5.208018e-09 
  7.822000e+03   4.857511e-09 
  7.823000e+03   4.990207e-09 
  7.824000e+03   5.195291e-09 
  7.825000e+03   5.486380e-09 
  7.826000e+03   4.746472e-09 
  7.827000e+03   5.181684e-09 
  7.828000e+03   4.437122e-09 
  7.829000e+03   6.258646e-09 
  7.830000e+03   5.903378e-09 
  7.831000e+03   4.539576e-09 
  7.832000e+03   5.639710e-09 
  7.833000e+03   4.971010e-09 
  7.834000e+03   5.189869e-09 
  7.835000e+03   5.416771e-09 
  7.836000e+03   3.960981e-09 
  7.837000e+03   5.177699e-09 
  7.838000e+03   5.432184e-09 
  7.839000e+03   3.849435e-09 
  7.840000e+03   4.782042e-09 
  7.841000e+03   4.771425e-09 
  7.842000e+03   5.101957e-09 
  7.843000e+03   5.023594e-09 
  7.844000e+03   5.513575e-09 
  7.845000e+03   4.395645e-09 
  7.846000e+03   5.369885e-09 
  7.847000e+03   5.365263e-09 
  7.848000e+03   5.205221e-09 
  7.849000e+03   4.590482e-09 
  7.850000e+03   4.981168e-09 
  7.851000e+03   4.705410e-09 
  7.852000e+03   5.252471e-09 
  7.853000e+03   4.654225e-09 
  7.854000e+03   5.820261e-09 
  7.855000e+03   5.011926e-09 
  7.856000e+03   4.411061e-09 
  7.857000e+03   6.020060e-09 
  7.858000e+03   4.101079e-09 
  7.859000e+03   4.718048e-09 
  7.860000e+03   5.084305e-09 
  7.861000e+03   5.243680e-09 
  7.862000e+03   4.887363e-09 
  7.863000e+03   5.476076e-09 
  7.864000e+03   4.530196e-09 
  7.865000e+03   5.746749e-09 
  7.866000e+03   3.969484e-09 
  7.867000e+03   4.671685e-09 
  7.868000e+03   4.751609e-09 
  7.869000e+03   4.900695e-09 
  7.870000e+03   4.612597e-09 
  7.871000e+03   4.958437e-09 
  7.872000e+03   4.635646e-09 
  7.873000e+03   5.301948e-09 
  7.874000e+03   4.578774e-09 
  7.875000e+03   5.310058e-09 
  7.876000e+03   6.388645e-09 
  7.877000e+03   4.088708e-09 
  7.878000e+03   4.332776e-09 
  7.879000e+03   5.128571e-09 
  7.880000e+03   4.998554e-09 
  7.881000e+03   5.265384e-09 
  7.882000e+03   5.048076e-09 
  7.883000e+03   4.709742e-09 
  7.884000e+03   4.874964e-09 
  7.885000e+03   5.244551e-09 
  7.886000e+03   5.100596e-09 
  7.887000e+03   4.162354e-09 
  7.888000e+03   4.513269e-09 
  7.889000e+03   4.638371e-09 
  7.890000e+03   5.520265e-09 
  7.891000e+03   4.413269e-09 
  7.892000e+03   5.243325e-09 
  7.893000e+03   4.439376e-09 
  7.894000e+03   4.996442e-09 
  7.895000e+03   4.780675e-09 
  7.896000e+03   5.293777e-09 
  7.897000e+03   4.765131e-09 
  7.898000e+03   4.471964e-09 
  7.899000e+03   4.244964e-09 
  7.900000e+03   6.251693e-09 
  7.901000e+03   5.620371e-09 
  7.902000e+03   4.533347e-09 
  7.903000e+03   4.584458e-09 
  7.904000e+03   4.980158e-09 
  7.905000e+03   4.699904e-09 
  7.906000e+03   4.987259e-09 
  7.907000e+03   5.894714e-09 
  7.908000e+03   4.375208e-09 
  7.909000e+03   5.444491e-09 
  7.910000e+03   5.267999e-09 
  7.911000e+03   5.683011e-09 
  7.912000e+03   4.927885e-09 
  7.913000e+03   4.947898e-09 
  7.914000e+03   4.778488e-09 
  7.915000e+03   5.074943e-09 
  7.916000e+03   4.877112e-09 
  7.917000e+03   3.917128e-09 
  7.918000e+03   5.745167e-09 
  7.919000e+03   4.123367e-09 
  7.920000e+03   5.568479e-09 
  7.921000e+03   4.152345e-09 
  7.922000e+03   5.828181e-09 
  7.923000e+03   5.648042e-09 
  7.924000e+03   5.369503e-09 
  7.925000e+03   4.683791e-09 
  7.926000e+03   4.756311e-09 
  7.927000e+03   5.235617e-09 
  7.928000e+03   5.329885e-09 
  7.929000e+03   5.893090e-09 
  7.930000e+03   4.843932e-09 
  7.931000e+03   5.131354e-09 
  7.932000e+03   4.634440e-09 
  7.933000e+03   4.749247e-09 
  7.934000e+03   4.925283e-09 
  7.935000e+03   4.915581e-09 
  7.936000e+03   5.587493e-09 
  7.937000e+03   5.838039e-09 
  7.938000e+03   4.868902e-09 
  7.939000e+03   4.923259e-09 
  7.940000e+03   5.426867e-09 
  7.941000e+03   4.814074e-09 
  7.942000e+03   4.543657e-09 
  7.943000e+03   4.289346e-09 
  7.944000e+03   4.220190e-09 
  7.945000e+03   4.234320e-09 
  7.946000e+03   5.009984e-09 
  7.947000e+03   4.783251e-09 
  7.948000e+03   5.084516e-09 
  7.949000e+03   4.940981e-09 
  7.950000e+03   4.611100e-09 
  7.951000e+03   4.957071e-09 
  7.952000e+03   4.928988e-09 
  7.953000e+03   4.402625e-09 
  7.954000e+03   4.099430e-09 
  7.955000e+03   5.133627e-09 
  7.956000e+03   5.787869e-09 
  7.957000e+03   5.206797e-09 
  7.958000e+03   5.426133e-09 
  7.959000e+03   5.114646e-09 
  7.960000e+03   5.196743e-09 
  7.961000e+03   5.724353e-09 
  7.962000e+03   4.497203e-09 
  7.963000e+03   4.016552e-09 
  7.964000e+03   5.460631e-09 
  7.965000e+03   4.493026e-09 
  7.966000e+03   4.174079e-09 
  7.967000e+03   5.098903e-09 
  7.968000e+03   5.336007e-09 
  7.969000e+03   4.764987e-09 
  7.970000e+03   4.948312e-09 
  7.971000e+03   5.008299e-09 
  7.972000e+03   4.693822e-09 
  7.973000e+03   4.690175e-09 
  7.974000e+03   4.409638e-09 
  7.975000e+03   5.254424e-09 
  7.976000e+03   4.902377e-09 
  7.977000e+03   4.891412e-09 
  7.978000e+03   5.066550e-09 
  7.979000e+03   4.826126e-09 
  7.980000e+03   5.081362e-09 
  7.981000e+03   4.739337e-09 
  7.982000e+03   5.690326e-09 
  7.983000e+03   3.959767e-09 
  7.984000e+03   5.474903e-09 
  7.985000e+03   4.717923e-09 
  7.986000e+03   5.052069e-09 
  7.987000e+03   4.667569e-09 
  7.988000e+03   4.213596e-09 
  7.989000e+03   5.175925e-09 
  7.990000e+03   4.165182e-09 
  7.991000e+03   4.684523e-09 
  7.992000e+03   4.409390e-09 
  7.993000e+03   5.135859e-09 
  7.994000e+03   4.147910e-09 
  7.995000e+03   4.704844e-09 
  7.996000e+03   5.707702e-09 
  7.997000e+03   4.855389e-09 
  7.998000e+03   5.314313e-09 
  7.999000e+03   4.937805e-09 
  8.000000e+03   4.699328e-09 
