Input File: BG-LPF-M.78D
Measure Group: FFT
Measurement: FFT 2
Num of extracted Points: 801
Start Freq: 8.8 kHz
Span: 800 Hz
FFT Lines:  400 
Window: Uniform
Averaging Mode: RMS
Averaging Type: Linear / Fix Len
Number of Avg:   20
Overload reject: Off

    X[Hz]      Vrms/Hz^(1/... 
  8.800000e+03   5.399752e-09 
  8.801000e+03   4.697633e-09 
  8.802000e+03   4.536159e-09 
  8.803000e+03   5.279919e-09 
  8.804000e+03   4.993476e-09 
  8.805000e+03   4.553330e-09 
  8.806000e+03   4.272490e-09 
  8.807000e+03   5.669361e-09 
  8.808000e+03   4.891752e-09 
  8.809000e+03   4.875377e-09 
  8.810000e+03   6.004232e-09 
  8.811000e+03   4.967036e-09 
  8.812000e+03   4.988774e-09 
  8.813000e+03   4.729551e-09 
  8.814000e+03   5.118208e-09 
  8.815000e+03   5.635280e-09 
  8.816000e+03   3.849595e-09 
  8.817000e+03   4.830308e-09 
  8.818000e+03   4.511111e-09 
  8.819000e+03   4.577906e-09 
  8.820000e+03   5.010133e-09 
  8.821000e+03   4.664473e-09 
  8.822000e+03   3.814453e-09 
  8.823000e+03   4.360754e-09 
  8.824000e+03   5.298408e-09 
  8.825000e+03   4.174352e-09 
  8.826000e+03   3.734734e-09 
  8.827000e+03   4.924871e-09 
  8.828000e+03   5.055572e-09 
  8.829000e+03   5.004885e-09 
  8.830000e+03   4.450111e-09 
  8.831000e+03   5.489541e-09 
  8.832000e+03   4.468975e-09 
  8.833000e+03   5.947646e-09 
  8.834000e+03   5.464877e-09 
  8.835000e+03   4.515004e-09 
  8.836000e+03   3.932192e-09 
  8.837000e+03   4.484469e-09 
  8.838000e+03   4.186816e-09 
  8.839000e+03   4.476357e-09 
  8.840000e+03   4.263628e-09 
  8.841000e+03   5.347970e-09 
  8.842000e+03   4.980926e-09 
  8.843000e+03   4.263634e-09 
  8.844000e+03   4.723343e-09 
  8.845000e+03   5.282153e-09 
  8.846000e+03   5.237627e-09 
  8.847000e+03   4.705027e-09 
  8.848000e+03   4.592137e-09 
  8.849000e+03   4.907991e-09 
  8.850000e+03   4.592398e-09 
  8.851000e+03   5.389274e-09 
  8.852000e+03   5.410417e-09 
  8.853000e+03   6.046083e-09 
  8.854000e+03   4.600743e-09 
  8.855000e+03   3.668243e-09 
  8.856000e+03   4.969434e-09 
  8.857000e+03   3.872202e-09 
  8.858000e+03   4.370270e-09 
  8.859000e+03   5.156598e-09 
  8.860000e+03   4.528856e-09 
  8.861000e+03   4.600295e-09 
  8.862000e+03   4.907914e-09 
  8.863000e+03   4.281492e-09 
  8.864000e+03   5.600914e-09 
  8.865000e+03   5.770293e-09 
  8.866000e+03   4.497458e-09 
  8.867000e+03   4.838421e-09 
  8.868000e+03   4.070919e-09 
  8.869000e+03   3.928996e-09 
  8.870000e+03   4.199732e-09 
  8.871000e+03   4.832262e-09 
  8.872000e+03   3.910548e-09 
  8.873000e+03   5.189762e-09 
  8.874000e+03   5.834274e-09 
  8.875000e+03   4.395825e-09 
  8.876000e+03   5.454040e-09 
  8.877000e+03   4.422980e-09 
  8.878000e+03   4.116319e-09 
  8.879000e+03   4.105207e-09 
  8.880000e+03   4.793795e-09 
  8.881000e+03   4.207034e-09 
  8.882000e+03   4.298121e-09 
  8.883000e+03   5.025540e-09 
  8.884000e+03   5.663653e-09 
  8.885000e+03   5.853174e-09 
  8.886000e+03   4.835441e-09 
  8.887000e+03   5.172400e-09 
  8.888000e+03   5.399437e-09 
  8.889000e+03   4.564805e-09 
  8.890000e+03   4.745242e-09 
  8.891000e+03   3.837664e-09 
  8.892000e+03   4.088348e-09 
  8.893000e+03   4.179963e-09 
  8.894000e+03   4.474299e-09 
  8.895000e+03   3.925253e-09 
  8.896000e+03   4.655890e-09 
  8.897000e+03   5.124110e-09 
  8.898000e+03   5.585112e-09 
  8.899000e+03   4.601321e-09 
  8.900000e+03   5.616855e-09 
  8.901000e+03   4.448523e-09 
  8.902000e+03   5.332035e-09 
  8.903000e+03   5.625905e-09 
  8.904000e+03   5.052184e-09 
  8.905000e+03   5.010354e-09 
  8.906000e+03   6.421576e-09 
  8.907000e+03   4.466916e-09 
  8.908000e+03   4.538076e-09 
  8.909000e+03   5.329640e-09 
  8.910000e+03   4.963201e-09 
  8.911000e+03   4.148913e-09 
  8.912000e+03   4.360245e-09 
  8.913000e+03   5.236969e-09 
  8.914000e+03   4.928312e-09 
  8.915000e+03   5.498177e-09 
  8.916000e+03   4.854446e-09 
  8.917000e+03   4.805279e-09 
  8.918000e+03   4.933381e-09 
  8.919000e+03   3.692204e-09 
  8.920000e+03   3.762214e-09 
  8.921000e+03   5.666274e-09 
  8.922000e+03   4.976452e-09 
  8.923000e+03   4.623103e-09 
  8.924000e+03   4.991501e-09 
  8.925000e+03   4.607851e-09 
  8.926000e+03   5.081721e-09 
  8.927000e+03   4.531252e-09 
  8.928000e+03   4.323915e-09 
  8.929000e+03   5.282669e-09 
  8.930000e+03   5.443525e-09 
  8.931000e+03   5.265770e-09 
  8.932000e+03   4.190356e-09 
  8.933000e+03   4.530255e-09 
  8.934000e+03   5.479133e-09 
  8.935000e+03   4.705620e-09 
  8.936000e+03   5.226827e-09 
  8.937000e+03   4.994547e-09 
  8.938000e+03   6.565116e-09 
  8.939000e+03   4.506484e-09 
  8.940000e+03   4.570052e-09 
  8.941000e+03   4.773182e-09 
  8.942000e+03   4.693088e-09 
  8.943000e+03   5.255163e-09 
  8.944000e+03   5.152768e-09 
  8.945000e+03   4.202943e-09 
  8.946000e+03   4.436492e-09 
  8.947000e+03   4.645401e-09 
  8.948000e+03   4.780347e-09 
  8.949000e+03   5.429234e-09 
  8.950000e+03   4.663334e-09 
  8.951000e+03   5.825510e-09 
  8.952000e+03   5.045642e-09 
  8.953000e+03   5.522243e-09 
  8.954000e+03   4.811334e-09 
  8.955000e+03   4.526616e-09 
  8.956000e+03   3.840527e-09 
  8.957000e+03   5.612812e-09 
  8.958000e+03   5.165905e-09 
  8.959000e+03   5.504230e-09 
  8.960000e+03   4.937465e-09 
  8.961000e+03   5.148713e-09 
  8.962000e+03   6.005343e-09 
  8.963000e+03   4.848488e-09 
  8.964000e+03   5.170345e-09 
  8.965000e+03   4.641498e-09 
  8.966000e+03   3.873671e-09 
  8.967000e+03   4.673762e-09 
  8.968000e+03   5.048363e-09 
  8.969000e+03   4.015979e-09 
  8.970000e+03   5.200254e-09 
  8.971000e+03   4.712053e-09 
  8.972000e+03   4.706968e-09 
  8.973000e+03   5.386227e-09 
  8.974000e+03   4.557858e-09 
  8.975000e+03   5.472667e-09 
  8.976000e+03   4.939863e-09 
  8.977000e+03   4.618965e-09 
  8.978000e+03   4.388580e-09 
  8.979000e+03   4.826472e-09 
  8.980000e+03   4.573673e-09 
  8.981000e+03   6.371378e-09 
  8.982000e+03   4.950223e-09 
  8.983000e+03   4.729130e-09 
  8.984000e+03   4.645742e-09 
  8.985000e+03   4.440705e-09 
  8.986000e+03   5.015060e-09 
  8.987000e+03   5.078693e-09 
  8.988000e+03   5.002711e-09 
  8.989000e+03   4.845397e-09 
  8.990000e+03   4.851255e-09 
  8.991000e+03   3.781077e-09 
  8.992000e+03   4.082712e-09 
  8.993000e+03   4.694191e-09 
  8.994000e+03   5.459879e-09 
  8.995000e+03   4.936988e-09 
  8.996000e+03   4.097257e-09 
  8.997000e+03   4.639716e-09 
  8.998000e+03   5.719605e-09 
  8.999000e+03   5.195103e-09 
  9.000000e+03   5.239173e-09 
  9.001000e+03   4.203066e-09 
  9.002000e+03   6.190275e-09 
  9.003000e+03   5.817488e-09 
  9.004000e+03   4.375090e-09 
  9.005000e+03   4.543884e-09 
  9.006000e+03   4.888429e-09 
  9.007000e+03   4.892179e-09 
  9.008000e+03   5.217917e-09 
  9.009000e+03   4.075249e-09 
  9.010000e+03   5.318653e-09 
  9.011000e+03   4.480472e-09 
  9.012000e+03   4.035992e-09 
  9.013000e+03   4.710635e-09 
  9.014000e+03   5.388095e-09 
  9.015000e+03   5.326283e-09 
  9.016000e+03   4.237403e-09 
  9.017000e+03   4.905943e-09 
  9.018000e+03   3.736182e-09 
  9.019000e+03   4.287672e-09 
  9.020000e+03   4.323766e-09 
  9.021000e+03   4.254987e-09 
  9.022000e+03   5.202270e-09 
  9.023000e+03   4.577608e-09 
  9.024000e+03   4.960953e-09 
  9.025000e+03   5.596223e-09 
  9.026000e+03   5.882604e-09 
  9.027000e+03   4.265710e-09 
  9.028000e+03   5.156155e-09 
  9.029000e+03   5.160867e-09 
  9.030000e+03   5.298354e-09 
  9.031000e+03   5.318946e-09 
  9.032000e+03   4.526215e-09 
  9.033000e+03   3.607866e-09 
  9.034000e+03   4.756869e-09 
  9.035000e+03   4.280878e-09 
  9.036000e+03   4.555486e-09 
  9.037000e+03   4.950426e-09 
  9.038000e+03   4.222009e-09 
  9.039000e+03   4.644374e-09 
  9.040000e+03   5.255659e-09 
  9.041000e+03   4.702993e-09 
  9.042000e+03   4.768969e-09 
  9.043000e+03   5.175191e-09 
  9.044000e+03   5.055412e-09 
  9.045000e+03   4.758097e-09 
  9.046000e+03   4.461522e-09 
  9.047000e+03   5.080318e-09 
  9.048000e+03   5.437564e-09 
  9.049000e+03   4.696775e-09 
  9.050000e+03   4.582240e-09 
  9.051000e+03   4.765105e-09 
  9.052000e+03   6.068998e-09 
  9.053000e+03   4.263904e-09 
  9.054000e+03   4.739453e-09 
  9.055000e+03   5.027913e-09 
  9.056000e+03   4.054395e-09 
  9.057000e+03   5.385052e-09 
  9.058000e+03   5.491506e-09 
  9.059000e+03   4.741628e-09 
  9.060000e+03   5.151888e-09 
  9.061000e+03   5.359926e-09 
  9.062000e+03   4.797741e-09 
  9.063000e+03   4.677621e-09 
  9.064000e+03   5.599729e-09 
  9.065000e+03   5.640397e-09 
  9.066000e+03   5.469608e-09 
  9.067000e+03   5.107052e-09 
  9.068000e+03   5.828048e-09 
  9.069000e+03   5.621982e-09 
  9.070000e+03   4.593675e-09 
  9.071000e+03   4.348384e-09 
  9.072000e+03   5.677000e-09 
  9.073000e+03   4.817735e-09 
  9.074000e+03   4.587358e-09 
  9.075000e+03   4.726792e-09 
  9.076000e+03   3.843132e-09 
  9.077000e+03   4.827912e-09 
  9.078000e+03   4.575755e-09 
  9.079000e+03   6.076033e-09 
  9.080000e+03   5.355962e-09 
  9.081000e+03   5.222653e-09 
  9.082000e+03   5.059984e-09 
  9.083000e+03   4.059621e-09 
  9.084000e+03   3.799397e-09 
  9.085000e+03   4.073192e-09 
  9.086000e+03   4.127802e-09 
  9.087000e+03   4.524373e-09 
  9.088000e+03   3.903492e-09 
  9.089000e+03   4.346265e-09 
  9.090000e+03   4.551996e-09 
  9.091000e+03   4.169163e-09 
  9.092000e+03   3.822496e-09 
  9.093000e+03   4.048796e-09 
  9.094000e+03   4.454794e-09 
  9.095000e+03   4.546294e-09 
  9.096000e+03   4.628082e-09 
  9.097000e+03   4.779937e-09 
  9.098000e+03   4.270394e-09 
  9.099000e+03   5.148210e-09 
  9.100000e+03   4.673176e-09 
  9.101000e+03   5.381917e-09 
  9.102000e+03   5.208940e-09 
  9.103000e+03   4.352307e-09 
  9.104000e+03   5.969729e-09 
  9.105000e+03   5.040580e-09 
  9.106000e+03   4.581423e-09 
  9.107000e+03   4.882712e-09 
  9.108000e+03   4.422512e-09 
  9.109000e+03   5.637311e-09 
  9.110000e+03   5.154236e-09 
  9.111000e+03   5.698017e-09 
  9.112000e+03   5.645974e-09 
  9.113000e+03   5.407661e-09 
  9.114000e+03   4.971813e-09 
  9.115000e+03   4.804261e-09 
  9.116000e+03   4.427557e-09 
  9.117000e+03   4.143731e-09 
  9.118000e+03   5.544426e-09 
  9.119000e+03   5.371906e-09 
  9.120000e+03   4.856743e-09 
  9.121000e+03   5.157811e-09 
  9.122000e+03   4.152272e-09 
  9.123000e+03   5.358489e-09 
  9.124000e+03   5.020386e-09 
  9.125000e+03   5.502978e-09 
  9.126000e+03   4.389777e-09 
  9.127000e+03   4.608442e-09 
  9.128000e+03   4.958275e-09 
  9.129000e+03   5.179046e-09 
  9.130000e+03   6.046369e-09 
  9.131000e+03   5.412194e-09 
  9.132000e+03   5.223094e-09 
  9.133000e+03   4.784878e-09 
  9.134000e+03   4.849457e-09 
  9.135000e+03   4.655313e-09 
  9.136000e+03   4.534774e-09 
  9.137000e+03   5.453030e-09 
  9.138000e+03   5.003210e-09 
  9.139000e+03   5.369724e-09 
  9.140000e+03   4.646531e-09 
  9.141000e+03   5.516219e-09 
  9.142000e+03   5.482087e-09 
  9.143000e+03   4.665099e-09 
  9.144000e+03   5.141184e-09 
  9.145000e+03   4.163036e-09 
  9.146000e+03   5.465747e-09 
  9.147000e+03   6.365852e-09 
  9.148000e+03   4.039203e-09 
  9.149000e+03   5.107045e-09 
  9.150000e+03   4.724314e-09 
  9.151000e+03   5.398556e-09 
  9.152000e+03   5.890926e-09 
  9.153000e+03   4.801982e-09 
  9.154000e+03   5.638316e-09 
  9.155000e+03   4.940028e-09 
  9.156000e+03   5.026415e-09 
  9.157000e+03   4.478951e-09 
  9.158000e+03   5.947284e-09 
  9.159000e+03   4.590009e-09 
  9.160000e+03   5.223572e-09 
  9.161000e+03   4.902745e-09 
  9.162000e+03   6.026856e-09 
  9.163000e+03   5.304293e-09 
  9.164000e+03   5.034260e-09 
  9.165000e+03   5.601313e-09 
  9.166000e+03   4.636663e-09 
  9.167000e+03   4.949073e-09 
  9.168000e+03   5.571943e-09 
  9.169000e+03   4.217552e-09 
  9.170000e+03   5.038300e-09 
  9.171000e+03   3.481941e-09 
  9.172000e+03   4.337150e-09 
  9.173000e+03   5.733040e-09 
  9.174000e+03   5.306304e-09 
  9.175000e+03   4.559745e-09 
  9.176000e+03   5.538488e-09 
  9.177000e+03   6.277937e-09 
  9.178000e+03   4.874678e-09 
  9.179000e+03   5.599095e-09 
  9.180000e+03   4.190373e-09 
  9.181000e+03   5.831197e-09 
  9.182000e+03   5.494883e-09 
  9.183000e+03   4.068222e-09 
  9.184000e+03   4.556455e-09 
  9.185000e+03   5.526668e-09 
  9.186000e+03   5.782754e-09 
  9.187000e+03   4.851314e-09 
  9.188000e+03   3.844356e-09 
  9.189000e+03   5.327851e-09 
  9.190000e+03   4.616262e-09 
  9.191000e+03   5.205145e-09 
  9.192000e+03   4.941109e-09 
  9.193000e+03   5.637545e-09 
  9.194000e+03   5.224803e-09 
  9.195000e+03   4.211755e-09 
  9.196000e+03   6.033095e-09 
  9.197000e+03   4.772224e-09 
  9.198000e+03   5.108127e-09 
  9.199000e+03   4.141123e-09 
  9.200000e+03   4.466060e-09 
  9.201000e+03   4.169968e-09 
  9.202000e+03   4.377487e-09 
  9.203000e+03   4.764825e-09 
  9.204000e+03   5.105040e-09 
  9.205000e+03   4.866736e-09 
  9.206000e+03   5.161048e-09 
  9.207000e+03   4.472207e-09 
  9.208000e+03   5.384452e-09 
  9.209000e+03   4.942353e-09 
  9.210000e+03   4.865367e-09 
  9.211000e+03   4.674867e-09 
  9.212000e+03   4.888715e-09 
  9.213000e+03   4.904874e-09 
  9.214000e+03   5.070229e-09 
  9.215000e+03   4.487495e-09 
  9.216000e+03   4.832809e-09 
  9.217000e+03   4.995156e-09 
  9.218000e+03   5.438573e-09 
  9.219000e+03   4.512707e-09 
  9.220000e+03   5.029911e-09 
  9.221000e+03   3.682015e-09 
  9.222000e+03   4.815465e-09 
  9.223000e+03   4.504444e-09 
  9.224000e+03   5.651607e-09 
  9.225000e+03   4.378663e-09 
  9.226000e+03   5.436764e-09 
  9.227000e+03   4.946290e-09 
  9.228000e+03   5.441693e-09 
  9.229000e+03   4.577060e-09 
  9.230000e+03   4.902091e-09 
  9.231000e+03   4.036975e-09 
  9.232000e+03   4.400539e-09 
  9.233000e+03   4.319235e-09 
  9.234000e+03   4.552263e-09 
  9.235000e+03   4.427223e-09 
  9.236000e+03   4.912874e-09 
  9.237000e+03   4.323895e-09 
  9.238000e+03   4.840672e-09 
  9.239000e+03   4.690033e-09 
  9.240000e+03   4.212110e-09 
  9.241000e+03   4.093049e-09 
  9.242000e+03   4.382843e-09 
  9.243000e+03   5.240933e-09 
  9.244000e+03   5.566866e-09 
  9.245000e+03   5.109787e-09 
  9.246000e+03   5.006279e-09 
  9.247000e+03   4.751618e-09 
  9.248000e+03   4.449718e-09 
  9.249000e+03   4.601066e-09 
  9.250000e+03   4.722562e-09 
  9.251000e+03   5.537178e-09 
  9.252000e+03   5.400340e-09 
  9.253000e+03   4.865430e-09 
  9.254000e+03   5.139617e-09 
  9.255000e+03   4.573016e-09 
  9.256000e+03   5.936855e-09 
  9.257000e+03   4.422700e-09 
  9.258000e+03   4.629704e-09 
  9.259000e+03   5.135629e-09 
  9.260000e+03   3.765708e-09 
  9.261000e+03   4.973925e-09 
  9.262000e+03   4.943006e-09 
  9.263000e+03   4.841581e-09 
  9.264000e+03   4.648691e-09 
  9.265000e+03   4.914293e-09 
  9.266000e+03   5.318264e-09 
  9.267000e+03   5.488448e-09 
  9.268000e+03   4.801123e-09 
  9.269000e+03   5.410257e-09 
  9.270000e+03   4.071457e-09 
  9.271000e+03   4.457711e-09 
  9.272000e+03   5.077860e-09 
  9.273000e+03   4.602644e-09 
  9.274000e+03   4.511059e-09 
  9.275000e+03   5.541003e-09 
  9.276000e+03   5.223233e-09 
  9.277000e+03   4.792577e-09 
  9.278000e+03   3.930309e-09 
  9.279000e+03   4.874797e-09 
  9.280000e+03   4.802820e-09 
  9.281000e+03   5.485885e-09 
  9.282000e+03   5.373907e-09 
  9.283000e+03   4.893676e-09 
  9.284000e+03   4.861121e-09 
  9.285000e+03   5.549660e-09 
  9.286000e+03   4.950973e-09 
  9.287000e+03   4.574644e-09 
  9.288000e+03   5.903478e-09 
  9.289000e+03   5.528736e-09 
  9.290000e+03   5.532885e-09 
  9.291000e+03   4.450177e-09 
  9.292000e+03   4.553965e-09 
  9.293000e+03   4.837788e-09 
  9.294000e+03   5.456180e-09 
  9.295000e+03   5.849847e-09 
  9.296000e+03   4.678804e-09 
  9.297000e+03   4.545611e-09 
  9.298000e+03   4.035233e-09 
  9.299000e+03   4.515629e-09 
  9.300000e+03   5.734512e-09 
  9.301000e+03   4.524791e-09 
  9.302000e+03   4.691740e-09 
  9.303000e+03   4.748056e-09 
  9.304000e+03   5.271191e-09 
  9.305000e+03   4.749121e-09 
  9.306000e+03   3.788328e-09 
  9.307000e+03   4.426126e-09 
  9.308000e+03   4.117880e-09 
  9.309000e+03   3.352757e-09 
  9.310000e+03   5.558091e-09 
  9.311000e+03   5.187756e-09 
  9.312000e+03   5.175093e-09 
  9.313000e+03   4.055389e-09 
  9.314000e+03   6.032329e-09 
  9.315000e+03   3.965619e-09 
  9.316000e+03   5.527965e-09 
  9.317000e+03   4.202769e-09 
  9.318000e+03   5.866044e-09 
  9.319000e+03   6.239804e-09 
  9.320000e+03   4.529316e-09 
  9.321000e+03   4.624321e-09 
  9.322000e+03   5.689152e-09 
  9.323000e+03   4.509793e-09 
  9.324000e+03   4.487045e-09 
  9.325000e+03   3.891617e-09 
  9.326000e+03   5.300642e-09 
  9.327000e+03   4.787654e-09 
  9.328000e+03   5.439541e-09 
  9.329000e+03   4.639252e-09 
  9.330000e+03   4.310155e-09 
  9.331000e+03   4.897667e-09 
  9.332000e+03   4.562219e-09 
  9.333000e+03   5.752038e-09 
  9.334000e+03   4.526233e-09 
  9.335000e+03   4.662669e-09 
  9.336000e+03   5.382264e-09 
  9.337000e+03   4.806011e-09 
  9.338000e+03   4.314368e-09 
  9.339000e+03   4.613141e-09 
  9.340000e+03   4.890460e-09 
  9.341000e+03   5.281451e-09 
  9.342000e+03   5.012406e-09 
  9.343000e+03   5.297419e-09 
  9.344000e+03   4.304101e-09 
  9.345000e+03   5.809688e-09 
  9.346000e+03   4.160036e-09 
  9.347000e+03   4.476434e-09 
  9.348000e+03   4.099853e-09 
  9.349000e+03   3.558179e-09 
  9.350000e+03   5.088194e-09 
  9.351000e+03   4.986561e-09 
  9.352000e+03   4.977416e-09 
  9.353000e+03   4.646858e-09 
  9.354000e+03   4.674995e-09 
  9.355000e+03   4.774918e-09 
  9.356000e+03   5.124490e-09 
  9.357000e+03   5.418987e-09 
  9.358000e+03   5.120937e-09 
  9.359000e+03   4.924188e-09 
  9.360000e+03   3.937990e-09 
  9.361000e+03   4.394363e-09 
  9.362000e+03   4.732977e-09 
  9.363000e+03   4.251352e-09 
  9.364000e+03   4.147145e-09 
  9.365000e+03   4.112174e-09 
  9.366000e+03   4.817778e-09 
  9.367000e+03   5.920058e-09 
  9.368000e+03   5.045486e-09 
  9.369000e+03   5.792877e-09 
  9.370000e+03   4.201732e-09 
  9.371000e+03   4.798996e-09 
  9.372000e+03   4.904349e-09 
  9.373000e+03   4.416369e-09 
  9.374000e+03   4.937351e-09 
  9.375000e+03   5.341578e-09 
  9.376000e+03   4.967905e-09 
  9.377000e+03   4.931836e-09 
  9.378000e+03   3.849631e-09 
  9.379000e+03   5.157786e-09 
  9.380000e+03   4.845103e-09 
  9.381000e+03   4.633413e-09 
  9.382000e+03   4.772981e-09 
  9.383000e+03   5.508910e-09 
  9.384000e+03   4.787368e-09 
  9.385000e+03   4.834066e-09 
  9.386000e+03   4.846501e-09 
  9.387000e+03   4.911108e-09 
  9.388000e+03   4.975985e-09 
  9.389000e+03   4.682111e-09 
  9.390000e+03   4.947095e-09 
  9.391000e+03   4.656232e-09 
  9.392000e+03   4.386916e-09 
  9.393000e+03   4.948572e-09 
  9.394000e+03   4.228949e-09 
  9.395000e+03   4.030874e-09 
  9.396000e+03   3.757103e-09 
  9.397000e+03   4.856686e-09 
  9.398000e+03   4.927462e-09 
  9.399000e+03   4.947523e-09 
  9.400000e+03   5.537494e-09 
  9.401000e+03   4.023785e-09 
  9.402000e+03   5.252712e-09 
  9.403000e+03   6.300600e-09 
  9.404000e+03   5.378107e-09 
  9.405000e+03   4.704760e-09 
  9.406000e+03   5.245693e-09 
  9.407000e+03   4.906852e-09 
  9.408000e+03   5.027902e-09 
  9.409000e+03   5.049770e-09 
  9.410000e+03   4.305611e-09 
  9.411000e+03   4.966831e-09 
  9.412000e+03   4.313104e-09 
  9.413000e+03   5.104001e-09 
  9.414000e+03   4.955926e-09 
  9.415000e+03   4.803971e-09 
  9.416000e+03   4.737057e-09 
  9.417000e+03   5.163466e-09 
  9.418000e+03   5.494814e-09 
  9.419000e+03   4.906887e-09 
  9.420000e+03   5.259934e-09 
  9.421000e+03   4.122585e-09 
  9.422000e+03   5.557007e-09 
  9.423000e+03   4.386788e-09 
  9.424000e+03   5.000600e-09 
  9.425000e+03   5.033105e-09 
  9.426000e+03   5.196930e-09 
  9.427000e+03   4.363334e-09 
  9.428000e+03   4.867270e-09 
  9.429000e+03   4.900299e-09 
  9.430000e+03   4.673436e-09 
  9.431000e+03   5.585033e-09 
  9.432000e+03   4.404937e-09 
  9.433000e+03   4.259443e-09 
  9.434000e+03   4.460217e-09 
  9.435000e+03   4.705794e-09 
  9.436000e+03   4.721986e-09 
  9.437000e+03   4.530930e-09 
  9.438000e+03   4.208008e-09 
  9.439000e+03   5.636478e-09 
  9.440000e+03   4.384220e-09 
  9.441000e+03   5.035195e-09 
  9.442000e+03   4.316756e-09 
  9.443000e+03   4.448593e-09 
  9.444000e+03   4.569604e-09 
  9.445000e+03   4.780147e-09 
  9.446000e+03   5.065214e-09 
  9.447000e+03   5.182128e-09 
  9.448000e+03   4.962035e-09 
  9.449000e+03   5.950956e-09 
  9.450000e+03   4.583455e-09 
  9.451000e+03   5.019927e-09 
  9.452000e+03   5.274388e-09 
  9.453000e+03   5.531970e-09 
  9.454000e+03   5.457308e-09 
  9.455000e+03   4.474994e-09 
  9.456000e+03   4.801536e-09 
  9.457000e+03   5.241280e-09 
  9.458000e+03   4.846333e-09 
  9.459000e+03   3.993425e-09 
  9.460000e+03   4.637877e-09 
  9.461000e+03   3.540811e-09 
  9.462000e+03   4.715094e-09 
  9.463000e+03   4.768472e-09 
  9.464000e+03   6.085958e-09 
  9.465000e+03   4.585582e-09 
  9.466000e+03   6.563787e-09 
  9.467000e+03   5.434901e-09 
  9.468000e+03   5.255421e-09 
  9.469000e+03   4.990711e-09 
  9.470000e+03   4.538286e-09 
  9.471000e+03   5.601999e-09 
  9.472000e+03   5.456372e-09 
  9.473000e+03   5.224201e-09 
  9.474000e+03   4.321785e-09 
  9.475000e+03   5.197630e-09 
  9.476000e+03   5.130297e-09 
  9.477000e+03   5.061758e-09 
  9.478000e+03   5.269607e-09 
  9.479000e+03   5.402439e-09 
  9.480000e+03   4.232426e-09 
  9.481000e+03   5.062350e-09 
  9.482000e+03   3.837578e-09 
  9.483000e+03   4.506438e-09 
  9.484000e+03   4.990333e-09 
  9.485000e+03   4.776636e-09 
  9.486000e+03   3.834850e-09 
  9.487000e+03   6.016006e-09 
  9.488000e+03   4.919106e-09 
  9.489000e+03   5.240271e-09 
  9.490000e+03   5.547748e-09 
  9.491000e+03   4.724331e-09 
  9.492000e+03   3.477864e-09 
  9.493000e+03   5.967599e-09 
  9.494000e+03   4.921371e-09 
  9.495000e+03   4.935861e-09 
  9.496000e+03   5.327343e-09 
  9.497000e+03   3.947489e-09 
  9.498000e+03   4.588696e-09 
  9.499000e+03   5.287493e-09 
  9.500000e+03   4.527674e-09 
  9.501000e+03   4.423923e-09 
  9.502000e+03   5.075296e-09 
  9.503000e+03   6.711222e-09 
  9.504000e+03   4.743572e-09 
  9.505000e+03   4.390716e-09 
  9.506000e+03   4.424771e-09 
  9.507000e+03   4.364386e-09 
  9.508000e+03   4.447611e-09 
  9.509000e+03   4.835585e-09 
  9.510000e+03   3.769677e-09 
  9.511000e+03   5.025399e-09 
  9.512000e+03   5.376494e-09 
  9.513000e+03   4.526530e-09 
  9.514000e+03   5.610989e-09 
  9.515000e+03   5.403564e-09 
  9.516000e+03   4.959763e-09 
  9.517000e+03   5.907159e-09 
  9.518000e+03   4.698077e-09 
  9.519000e+03   5.750318e-09 
  9.520000e+03   4.946032e-09 
  9.521000e+03   4.603297e-09 
  9.522000e+03   4.967591e-09 
  9.523000e+03   4.234549e-09 
  9.524000e+03   4.034124e-09 
  9.525000e+03   4.918605e-09 
  9.526000e+03   4.534498e-09 
  9.527000e+03   5.016446e-09 
  9.528000e+03   5.157939e-09 
  9.529000e+03   4.672939e-09 
  9.530000e+03   5.611179e-09 
  9.531000e+03   4.507325e-09 
  9.532000e+03   4.030460e-09 
  9.533000e+03   5.246158e-09 
  9.534000e+03   5.443934e-09 
  9.535000e+03   5.511100e-09 
  9.536000e+03   4.331924e-09 
  9.537000e+03   4.804937e-09 
  9.538000e+03   4.446445e-09 
  9.539000e+03   5.055084e-09 
  9.540000e+03   5.187160e-09 
  9.541000e+03   4.881357e-09 
  9.542000e+03   4.533774e-09 
  9.543000e+03   3.749142e-09 
  9.544000e+03   5.948073e-09 
  9.545000e+03   4.791536e-09 
  9.546000e+03   5.554956e-09 
  9.547000e+03   4.355064e-09 
  9.548000e+03   4.493573e-09 
  9.549000e+03   4.408923e-09 
  9.550000e+03   4.810203e-09 
  9.551000e+03   5.841250e-09 
  9.552000e+03   4.558995e-09 
  9.553000e+03   5.906613e-09 
  9.554000e+03   4.079426e-09 
  9.555000e+03   5.108210e-09 
  9.556000e+03   5.081672e-09 
  9.557000e+03   4.619621e-09 
  9.558000e+03   6.266683e-09 
  9.559000e+03   4.580434e-09 
  9.560000e+03   5.069696e-09 
  9.561000e+03   4.619434e-09 
  9.562000e+03   3.873831e-09 
  9.563000e+03   5.511884e-09 
  9.564000e+03   4.447998e-09 
  9.565000e+03   5.300376e-09 
  9.566000e+03   5.669272e-09 
  9.567000e+03   4.298010e-09 
  9.568000e+03   4.075221e-09 
  9.569000e+03   5.014207e-09 
  9.570000e+03   4.733657e-09 
  9.571000e+03   3.865511e-09 
  9.572000e+03   4.565931e-09 
  9.573000e+03   4.601140e-09 
  9.574000e+03   5.218206e-09 
  9.575000e+03   5.045674e-09 
  9.576000e+03   5.412669e-09 
  9.577000e+03   3.885532e-09 
  9.578000e+03   5.633086e-09 
  9.579000e+03   5.096843e-09 
  9.580000e+03   5.199528e-09 
  9.581000e+03   4.998898e-09 
  9.582000e+03   5.122774e-09 
  9.583000e+03   4.101367e-09 
  9.584000e+03   4.981306e-09 
  9.585000e+03   5.375092e-09 
  9.586000e+03   4.667414e-09 
  9.587000e+03   4.680853e-09 
  9.588000e+03   5.116476e-09 
  9.589000e+03   5.132235e-09 
  9.590000e+03   4.350544e-09 
  9.591000e+03   5.538205e-09 
  9.592000e+03   4.499029e-09 
  9.593000e+03   4.674845e-09 
  9.594000e+03   6.099083e-09 
  9.595000e+03   5.487395e-09 
  9.596000e+03   5.051019e-09 
  9.597000e+03   5.369887e-09 
  9.598000e+03   4.041038e-09 
  9.599000e+03   4.984879e-09 
  9.600000e+03   4.472795e-09 
