Input File: PZ100J.78D
Measure Group: FFT
Measurement: FFT 2
Num of extracted Points: 801
Start Freq: 6.4 kHz
Span: 800 Hz
FFT Lines:  400 
Window: Uniform
Averaging Mode: RMS
Averaging Type: Linear / Fix Len
Number of Avg:   20
Overload reject: Off

    X[Hz]      Vrms/Hz^(1/... 
  6.400000e+03   1.461028e-07 
  6.401000e+03   1.434612e-07 
  6.402000e+03   1.366792e-07 
  6.403000e+03   1.547346e-07 
  6.404000e+03   1.361876e-07 
  6.405000e+03   1.754487e-07 
  6.406000e+03   1.443049e-07 
  6.407000e+03   1.502849e-07 
  6.408000e+03   1.536746e-07 
  6.409000e+03   1.459573e-07 
  6.410000e+03   1.567482e-07 
  6.411000e+03   1.278244e-07 
  6.412000e+03   1.567079e-07 
  6.413000e+03   1.462478e-07 
  6.414000e+03   1.796390e-07 
  6.415000e+03   1.416499e-07 
  6.416000e+03   1.551138e-07 
  6.417000e+03   1.352273e-07 
  6.418000e+03   1.408673e-07 
  6.419000e+03   1.136256e-07 
  6.420000e+03   1.568064e-07 
  6.421000e+03   1.616487e-07 
  6.422000e+03   1.672214e-07 
  6.423000e+03   1.201763e-07 
  6.424000e+03   1.787310e-07 
  6.425000e+03   1.482694e-07 
  6.426000e+03   1.583233e-07 
  6.427000e+03   1.277727e-07 
  6.428000e+03   1.609119e-07 
  6.429000e+03   1.662035e-07 
  6.430000e+03   1.542262e-07 
  6.431000e+03   1.524906e-07 
  6.432000e+03   1.576063e-07 
  6.433000e+03   1.579900e-07 
  6.434000e+03   1.648071e-07 
  6.435000e+03   1.332616e-07 
  6.436000e+03   1.317630e-07 
  6.437000e+03   1.370592e-07 
  6.438000e+03   1.749278e-07 
  6.439000e+03   1.353547e-07 
  6.440000e+03   1.596733e-07 
  6.441000e+03   1.338953e-07 
  6.442000e+03   1.601210e-07 
  6.443000e+03   1.629830e-07 
  6.444000e+03   1.843627e-07 
  6.445000e+03   1.418119e-07 
  6.446000e+03   1.537259e-07 
  6.447000e+03   1.612233e-07 
  6.448000e+03   1.478746e-07 
  6.449000e+03   1.415527e-07 
  6.450000e+03   1.490189e-07 
  6.451000e+03   1.431468e-07 
  6.452000e+03   1.240401e-07 
  6.453000e+03   1.358499e-07 
  6.454000e+03   1.468906e-07 
  6.455000e+03   1.302314e-07 
  6.456000e+03   1.280493e-07 
  6.457000e+03   1.405378e-07 
  6.458000e+03   1.361414e-07 
  6.459000e+03   1.400326e-07 
  6.460000e+03   1.597571e-07 
  6.461000e+03   1.314063e-07 
  6.462000e+03   1.761736e-07 
  6.463000e+03   1.328417e-07 
  6.464000e+03   1.480147e-07 
  6.465000e+03   1.553610e-07 
  6.466000e+03   1.544622e-07 
  6.467000e+03   1.724546e-07 
  6.468000e+03   1.530256e-07 
  6.469000e+03   1.543344e-07 
  6.470000e+03   1.587897e-07 
  6.471000e+03   1.548224e-07 
  6.472000e+03   1.565234e-07 
  6.473000e+03   1.439968e-07 
  6.474000e+03   1.968202e-07 
  6.475000e+03   1.410655e-07 
  6.476000e+03   1.340817e-07 
  6.477000e+03   1.557382e-07 
  6.478000e+03   1.599631e-07 
  6.479000e+03   1.756809e-07 
  6.480000e+03   1.307708e-07 
  6.481000e+03   1.513248e-07 
  6.482000e+03   1.491914e-07 
  6.483000e+03   1.521116e-07 
  6.484000e+03   1.367991e-07 
  6.485000e+03   1.595292e-07 
  6.486000e+03   1.289192e-07 
  6.487000e+03   1.353417e-07 
  6.488000e+03   1.879605e-07 
  6.489000e+03   1.618101e-07 
  6.490000e+03   1.483984e-07 
  6.491000e+03   1.264836e-07 
  6.492000e+03   1.533929e-07 
  6.493000e+03   1.662411e-07 
  6.494000e+03   1.769138e-07 
  6.495000e+03   1.372780e-07 
  6.496000e+03   1.225553e-07 
  6.497000e+03   1.467104e-07 
  6.498000e+03   1.847147e-07 
  6.499000e+03   1.628917e-07 
  6.500000e+03   1.234792e-07 
  6.501000e+03   1.394985e-07 
  6.502000e+03   1.338411e-07 
  6.503000e+03   1.555055e-07 
  6.504000e+03   1.341861e-07 
  6.505000e+03   1.459174e-07 
  6.506000e+03   1.478354e-07 
  6.507000e+03   1.397527e-07 
  6.508000e+03   1.076854e-07 
  6.509000e+03   1.401329e-07 
  6.510000e+03   1.274905e-07 
  6.511000e+03   1.318485e-07 
  6.512000e+03   1.251092e-07 
  6.513000e+03   1.659007e-07 
  6.514000e+03   1.593423e-07 
  6.515000e+03   1.567824e-07 
  6.516000e+03   1.180958e-07 
  6.517000e+03   1.508740e-07 
  6.518000e+03   1.547028e-07 
  6.519000e+03   1.492272e-07 
  6.520000e+03   1.338092e-07 
  6.521000e+03   1.453116e-07 
  6.522000e+03   1.370713e-07 
  6.523000e+03   1.671524e-07 
  6.524000e+03   1.339058e-07 
  6.525000e+03   1.603211e-07 
  6.526000e+03   1.564941e-07 
  6.527000e+03   1.561137e-07 
  6.528000e+03   1.618359e-07 
  6.529000e+03   1.664914e-07 
  6.530000e+03   1.689106e-07 
  6.531000e+03   1.433502e-07 
  6.532000e+03   1.430678e-07 
  6.533000e+03   1.659217e-07 
  6.534000e+03   1.246919e-07 
  6.535000e+03   1.694348e-07 
  6.536000e+03   1.658515e-07 
  6.537000e+03   1.390891e-07 
  6.538000e+03   1.637804e-07 
  6.539000e+03   1.509884e-07 
  6.540000e+03   1.431292e-07 
  6.541000e+03   1.244270e-07 
  6.542000e+03   1.269156e-07 
  6.543000e+03   1.504707e-07 
  6.544000e+03   1.423696e-07 
  6.545000e+03   1.461271e-07 
  6.546000e+03   1.404754e-07 
  6.547000e+03   1.654029e-07 
  6.548000e+03   1.478205e-07 
  6.549000e+03   1.536488e-07 
  6.550000e+03   1.294642e-07 
  6.551000e+03   1.809292e-07 
  6.552000e+03   1.381047e-07 
  6.553000e+03   1.255952e-07 
  6.554000e+03   1.397502e-07 
  6.555000e+03   1.868725e-07 
  6.556000e+03   1.484334e-07 
  6.557000e+03   1.153583e-07 
  6.558000e+03   1.731421e-07 
  6.559000e+03   1.189485e-07 
  6.560000e+03   1.585773e-07 
  6.561000e+03   1.420046e-07 
  6.562000e+03   1.485861e-07 
  6.563000e+03   1.447874e-07 
  6.564000e+03   1.100450e-07 
  6.565000e+03   1.641091e-07 
  6.566000e+03   1.848739e-07 
  6.567000e+03   1.343641e-07 
  6.568000e+03   1.333145e-07 
  6.569000e+03   1.706931e-07 
  6.570000e+03   1.259313e-07 
  6.571000e+03   1.497927e-07 
  6.572000e+03   1.616871e-07 
  6.573000e+03   1.460375e-07 
  6.574000e+03   1.447165e-07 
  6.575000e+03   1.393359e-07 
  6.576000e+03   1.279189e-07 
  6.577000e+03   1.273592e-07 
  6.578000e+03   1.747290e-07 
  6.579000e+03   1.215215e-07 
  6.580000e+03   1.514761e-07 
  6.581000e+03   1.371728e-07 
  6.582000e+03   1.387353e-07 
  6.583000e+03   1.595924e-07 
  6.584000e+03   1.540013e-07 
  6.585000e+03   1.638121e-07 
  6.586000e+03   1.641829e-07 
  6.587000e+03   1.222700e-07 
  6.588000e+03   1.648673e-07 
  6.589000e+03   1.701173e-07 
  6.590000e+03   1.519032e-07 
  6.591000e+03   1.610531e-07 
  6.592000e+03   1.273032e-07 
  6.593000e+03   1.552716e-07 
  6.594000e+03   1.016167e-07 
  6.595000e+03   1.270391e-07 
  6.596000e+03   1.263090e-07 
  6.597000e+03   1.542690e-07 
  6.598000e+03   1.545149e-07 
  6.599000e+03   1.219485e-07 
  6.600000e+03   1.480370e-07 
  6.601000e+03   1.328772e-07 
  6.602000e+03   1.313293e-07 
  6.603000e+03   1.233410e-07 
  6.604000e+03   1.317356e-07 
  6.605000e+03   1.494078e-07 
  6.606000e+03   1.662953e-07 
  6.607000e+03   1.398641e-07 
  6.608000e+03   1.320989e-07 
  6.609000e+03   1.607112e-07 
  6.610000e+03   1.230195e-07 
  6.611000e+03   1.341681e-07 
  6.612000e+03   1.411074e-07 
  6.613000e+03   1.450933e-07 
  6.614000e+03   1.706468e-07 
  6.615000e+03   1.370236e-07 
  6.616000e+03   1.442446e-07 
  6.617000e+03   1.356039e-07 
  6.618000e+03   1.280085e-07 
  6.619000e+03   1.633641e-07 
  6.620000e+03   1.143321e-07 
  6.621000e+03   1.634483e-07 
  6.622000e+03   1.415471e-07 
  6.623000e+03   1.141641e-07 
  6.624000e+03   1.526314e-07 
  6.625000e+03   1.377131e-07 
  6.626000e+03   1.528909e-07 
  6.627000e+03   1.492947e-07 
  6.628000e+03   1.035603e-07 
  6.629000e+03   1.338322e-07 
  6.630000e+03   1.438790e-07 
  6.631000e+03   1.557324e-07 
  6.632000e+03   1.081117e-07 
  6.633000e+03   1.056560e-07 
  6.634000e+03   1.557949e-07 
  6.635000e+03   1.348472e-07 
  6.636000e+03   1.604123e-07 
  6.637000e+03   1.290898e-07 
  6.638000e+03   1.262749e-07 
  6.639000e+03   1.484409e-07 
  6.640000e+03   1.307199e-07 
  6.641000e+03   1.357355e-07 
  6.642000e+03   1.520837e-07 
  6.643000e+03   1.645328e-07 
  6.644000e+03   1.575606e-07 
  6.645000e+03   1.208404e-07 
  6.646000e+03   1.645528e-07 
  6.647000e+03   1.323551e-07 
  6.648000e+03   1.372601e-07 
  6.649000e+03   1.359299e-07 
  6.650000e+03   1.420281e-07 
  6.651000e+03   1.176354e-07 
  6.652000e+03   1.626687e-07 
  6.653000e+03   1.620311e-07 
  6.654000e+03   1.440482e-07 
  6.655000e+03   1.382958e-07 
  6.656000e+03   1.154447e-07 
  6.657000e+03   1.196774e-07 
  6.658000e+03   1.438464e-07 
  6.659000e+03   1.355006e-07 
  6.660000e+03   1.707284e-07 
  6.661000e+03   1.484667e-07 
  6.662000e+03   1.433467e-07 
  6.663000e+03   1.704826e-07 
  6.664000e+03   1.578502e-07 
  6.665000e+03   1.518430e-07 
  6.666000e+03   1.495346e-07 
  6.667000e+03   1.663811e-07 
  6.668000e+03   1.440593e-07 
  6.669000e+03   1.438603e-07 
  6.670000e+03   1.234421e-07 
  6.671000e+03   1.521422e-07 
  6.672000e+03   1.313443e-07 
  6.673000e+03   1.280523e-07 
  6.674000e+03   1.618203e-07 
  6.675000e+03   1.584508e-07 
  6.676000e+03   1.369330e-07 
  6.677000e+03   1.373441e-07 
  6.678000e+03   1.482230e-07 
  6.679000e+03   1.473911e-07 
  6.680000e+03   1.850370e-07 
  6.681000e+03   1.306582e-07 
  6.682000e+03   1.311197e-07 
  6.683000e+03   1.283167e-07 
  6.684000e+03   1.351172e-07 
  6.685000e+03   1.631303e-07 
  6.686000e+03   1.647497e-07 
  6.687000e+03   1.317348e-07 
  6.688000e+03   1.740494e-07 
  6.689000e+03   1.489302e-07 
  6.690000e+03   1.465161e-07 
  6.691000e+03   1.374181e-07 
  6.692000e+03   1.365744e-07 
  6.693000e+03   1.333444e-07 
  6.694000e+03   1.628438e-07 
  6.695000e+03   1.372509e-07 
  6.696000e+03   1.705803e-07 
  6.697000e+03   1.642580e-07 
  6.698000e+03   1.222916e-07 
  6.699000e+03   1.095800e-07 
  6.700000e+03   1.292112e-07 
  6.701000e+03   1.368811e-07 
  6.702000e+03   1.266275e-07 
  6.703000e+03   1.507699e-07 
  6.704000e+03   1.442681e-07 
  6.705000e+03   1.330190e-07 
  6.706000e+03   1.357882e-07 
  6.707000e+03   1.475528e-07 
  6.708000e+03   1.542645e-07 
  6.709000e+03   1.595242e-07 
  6.710000e+03   1.522702e-07 
  6.711000e+03   1.319655e-07 
  6.712000e+03   1.201473e-07 
  6.713000e+03   1.730098e-07 
  6.714000e+03   1.603416e-07 
  6.715000e+03   1.358851e-07 
  6.716000e+03   1.768530e-07 
  6.717000e+03   1.155096e-07 
  6.718000e+03   1.523069e-07 
  6.719000e+03   1.261223e-07 
  6.720000e+03   1.431443e-07 
  6.721000e+03   1.535704e-07 
  6.722000e+03   1.519011e-07 
  6.723000e+03   1.569516e-07 
  6.724000e+03   1.592099e-07 
  6.725000e+03   1.371301e-07 
  6.726000e+03   1.639743e-07 
  6.727000e+03   1.369874e-07 
  6.728000e+03   1.272252e-07 
  6.729000e+03   1.507949e-07 
  6.730000e+03   1.412600e-07 
  6.731000e+03   1.506807e-07 
  6.732000e+03   1.040093e-07 
  6.733000e+03   1.130858e-07 
  6.734000e+03   1.474091e-07 
  6.735000e+03   1.293187e-07 
  6.736000e+03   1.351142e-07 
  6.737000e+03   1.486625e-07 
  6.738000e+03   1.482975e-07 
  6.739000e+03   1.562954e-07 
  6.740000e+03   1.186064e-07 
  6.741000e+03   1.321824e-07 
  6.742000e+03   1.136441e-07 
  6.743000e+03   1.445451e-07 
  6.744000e+03   1.546799e-07 
  6.745000e+03   1.342885e-07 
  6.746000e+03   1.658176e-07 
  6.747000e+03   1.324267e-07 
  6.748000e+03   1.381996e-07 
  6.749000e+03   1.570082e-07 
  6.750000e+03   1.246286e-07 
  6.751000e+03   1.295187e-07 
  6.752000e+03   1.589571e-07 
  6.753000e+03   1.385725e-07 
  6.754000e+03   1.587088e-07 
  6.755000e+03   1.247832e-07 
  6.756000e+03   1.355467e-07 
  6.757000e+03   1.421371e-07 
  6.758000e+03   1.310720e-07 
  6.759000e+03   1.679447e-07 
  6.760000e+03   1.414827e-07 
  6.761000e+03   1.437573e-07 
  6.762000e+03   1.407823e-07 
  6.763000e+03   1.610945e-07 
  6.764000e+03   1.361053e-07 
  6.765000e+03   1.666250e-07 
  6.766000e+03   1.493452e-07 
  6.767000e+03   1.396767e-07 
  6.768000e+03   1.505189e-07 
  6.769000e+03   1.580841e-07 
  6.770000e+03   1.062322e-07 
  6.771000e+03   1.233978e-07 
  6.772000e+03   1.496582e-07 
  6.773000e+03   1.263110e-07 
  6.774000e+03   1.598574e-07 
  6.775000e+03   1.396144e-07 
  6.776000e+03   1.688796e-07 
  6.777000e+03   1.477254e-07 
  6.778000e+03   1.495896e-07 
  6.779000e+03   1.767780e-07 
  6.780000e+03   1.401118e-07 
  6.781000e+03   1.718186e-07 
  6.782000e+03   1.163582e-07 
  6.783000e+03   1.268689e-07 
  6.784000e+03   1.286153e-07 
  6.785000e+03   1.471475e-07 
  6.786000e+03   1.382211e-07 
  6.787000e+03   1.524012e-07 
  6.788000e+03   1.302416e-07 
  6.789000e+03   1.835170e-07 
  6.790000e+03   1.235575e-07 
  6.791000e+03   1.889255e-07 
  6.792000e+03   1.288693e-07 
  6.793000e+03   1.471732e-07 
  6.794000e+03   1.413707e-07 
  6.795000e+03   1.123223e-07 
  6.796000e+03   1.494282e-07 
  6.797000e+03   1.462997e-07 
  6.798000e+03   1.451153e-07 
  6.799000e+03   1.304136e-07 
  6.800000e+03   1.165927e-07 
  6.801000e+03   1.504787e-07 
  6.802000e+03   1.707561e-07 
  6.803000e+03   1.269562e-07 
  6.804000e+03   1.442688e-07 
  6.805000e+03   1.678557e-07 
  6.806000e+03   1.427106e-07 
  6.807000e+03   1.290384e-07 
  6.808000e+03   1.260373e-07 
  6.809000e+03   1.319617e-07 
  6.810000e+03   1.591163e-07 
  6.811000e+03   1.459070e-07 
  6.812000e+03   1.494961e-07 
  6.813000e+03   1.282924e-07 
  6.814000e+03   1.699465e-07 
  6.815000e+03   1.388754e-07 
  6.816000e+03   1.417314e-07 
  6.817000e+03   1.551087e-07 
  6.818000e+03   1.651881e-07 
  6.819000e+03   1.637718e-07 
  6.820000e+03   1.335978e-07 
  6.821000e+03   1.373696e-07 
  6.822000e+03   1.364278e-07 
  6.823000e+03   1.183041e-07 
  6.824000e+03   1.030791e-07 
  6.825000e+03   1.378117e-07 
  6.826000e+03   1.379692e-07 
  6.827000e+03   1.571425e-07 
  6.828000e+03   1.341142e-07 
  6.829000e+03   1.266942e-07 
  6.830000e+03   1.373012e-07 
  6.831000e+03   1.477426e-07 
  6.832000e+03   1.371567e-07 
  6.833000e+03   1.605737e-07 
  6.834000e+03   1.297384e-07 
  6.835000e+03   1.164356e-07 
  6.836000e+03   1.233208e-07 
  6.837000e+03   1.278433e-07 
  6.838000e+03   1.401921e-07 
  6.839000e+03   1.498439e-07 
  6.840000e+03   1.497433e-07 
  6.841000e+03   1.475148e-07 
  6.842000e+03   1.439243e-07 
  6.843000e+03   1.084662e-07 
  6.844000e+03   1.296855e-07 
  6.845000e+03   1.235598e-07 
  6.846000e+03   1.184187e-07 
  6.847000e+03   1.262653e-07 
  6.848000e+03   1.280519e-07 
  6.849000e+03   1.025699e-07 
  6.850000e+03   1.166216e-07 
  6.851000e+03   1.439791e-07 
  6.852000e+03   1.277871e-07 
  6.853000e+03   1.275746e-07 
  6.854000e+03   1.417960e-07 
  6.855000e+03   1.205046e-07 
  6.856000e+03   1.472831e-07 
  6.857000e+03   1.168371e-07 
  6.858000e+03   1.076231e-07 
  6.859000e+03   1.448197e-07 
  6.860000e+03   1.586076e-07 
  6.861000e+03   1.599284e-07 
  6.862000e+03   1.264652e-07 
  6.863000e+03   1.230156e-07 
  6.864000e+03   1.398146e-07 
  6.865000e+03   1.242739e-07 
  6.866000e+03   1.478260e-07 
  6.867000e+03   1.460293e-07 
  6.868000e+03   1.186567e-07 
  6.869000e+03   1.269269e-07 
  6.870000e+03   1.615755e-07 
  6.871000e+03   1.129103e-07 
  6.872000e+03   1.462675e-07 
  6.873000e+03   1.005212e-07 
  6.874000e+03   1.273469e-07 
  6.875000e+03   1.465035e-07 
  6.876000e+03   1.368601e-07 
  6.877000e+03   1.243813e-07 
  6.878000e+03   1.172768e-07 
  6.879000e+03   1.184707e-07 
  6.880000e+03   1.531592e-07 
  6.881000e+03   1.447589e-07 
  6.882000e+03   1.273485e-07 
  6.883000e+03   1.488156e-07 
  6.884000e+03   1.522477e-07 
  6.885000e+03   1.270073e-07 
  6.886000e+03   1.551355e-07 
  6.887000e+03   1.385175e-07 
  6.888000e+03   1.401907e-07 
  6.889000e+03   1.208498e-07 
  6.890000e+03   1.341161e-07 
  6.891000e+03   1.518788e-07 
  6.892000e+03   1.617225e-07 
  6.893000e+03   1.332933e-07 
  6.894000e+03   1.018995e-07 
  6.895000e+03   1.403562e-07 
  6.896000e+03   1.344069e-07 
  6.897000e+03   1.412567e-07 
  6.898000e+03   1.484144e-07 
  6.899000e+03   1.397031e-07 
  6.900000e+03   1.193563e-07 
  6.901000e+03   1.443728e-07 
  6.902000e+03   1.458353e-07 
  6.903000e+03   1.443592e-07 
  6.904000e+03   1.515977e-07 
  6.905000e+03   1.762628e-07 
  6.906000e+03   1.605907e-07 
  6.907000e+03   1.351722e-07 
  6.908000e+03   1.277567e-07 
  6.909000e+03   1.085863e-07 
  6.910000e+03   1.275764e-07 
  6.911000e+03   1.231274e-07 
  6.912000e+03   1.279081e-07 
  6.913000e+03   1.424631e-07 
  6.914000e+03   1.554468e-07 
  6.915000e+03   1.709211e-07 
  6.916000e+03   1.668696e-07 
  6.917000e+03   1.423845e-07 
  6.918000e+03   1.448579e-07 
  6.919000e+03   1.478550e-07 
  6.920000e+03   1.455357e-07 
  6.921000e+03   1.268628e-07 
  6.922000e+03   1.432427e-07 
  6.923000e+03   1.645202e-07 
  6.924000e+03   1.734917e-07 
  6.925000e+03   1.309045e-07 
  6.926000e+03   1.448173e-07 
  6.927000e+03   1.295879e-07 
  6.928000e+03   1.452232e-07 
  6.929000e+03   1.454936e-07 
  6.930000e+03   1.409919e-07 
  6.931000e+03   1.259453e-07 
  6.932000e+03   1.235539e-07 
  6.933000e+03   1.310935e-07 
  6.934000e+03   1.438281e-07 
  6.935000e+03   1.288457e-07 
  6.936000e+03   1.104520e-07 
  6.937000e+03   1.460704e-07 
  6.938000e+03   1.431299e-07 
  6.939000e+03   1.503808e-07 
  6.940000e+03   1.473666e-07 
  6.941000e+03   1.433063e-07 
  6.942000e+03   1.466999e-07 
  6.943000e+03   1.390300e-07 
  6.944000e+03   1.186393e-07 
  6.945000e+03   1.377920e-07 
  6.946000e+03   1.536832e-07 
  6.947000e+03   1.172041e-07 
  6.948000e+03   1.491283e-07 
  6.949000e+03   1.500984e-07 
  6.950000e+03   1.362482e-07 
  6.951000e+03   1.347894e-07 
  6.952000e+03   1.286121e-07 
  6.953000e+03   1.256025e-07 
  6.954000e+03   1.299105e-07 
  6.955000e+03   1.258480e-07 
  6.956000e+03   1.452629e-07 
  6.957000e+03   1.417601e-07 
  6.958000e+03   1.512140e-07 
  6.959000e+03   1.528560e-07 
  6.960000e+03   9.260064e-08 
  6.961000e+03   1.513104e-07 
  6.962000e+03   1.507171e-07 
  6.963000e+03   1.461399e-07 
  6.964000e+03   1.355432e-07 
  6.965000e+03   1.666899e-07 
  6.966000e+03   1.109341e-07 
  6.967000e+03   1.323922e-07 
  6.968000e+03   1.215844e-07 
  6.969000e+03   1.444453e-07 
  6.970000e+03   1.415314e-07 
  6.971000e+03   1.625596e-07 
  6.972000e+03   1.198862e-07 
  6.973000e+03   1.489422e-07 
  6.974000e+03   1.607641e-07 
  6.975000e+03   1.422676e-07 
  6.976000e+03   1.209084e-07 
  6.977000e+03   1.199603e-07 
  6.978000e+03   1.317067e-07 
  6.979000e+03   1.479570e-07 
  6.980000e+03   1.156710e-07 
  6.981000e+03   1.321344e-07 
  6.982000e+03   1.428630e-07 
  6.983000e+03   1.305917e-07 
  6.984000e+03   1.372587e-07 
  6.985000e+03   1.374973e-07 
  6.986000e+03   1.546780e-07 
  6.987000e+03   1.310690e-07 
  6.988000e+03   1.501556e-07 
  6.989000e+03   1.547944e-07 
  6.990000e+03   1.224078e-07 
  6.991000e+03   1.363201e-07 
  6.992000e+03   1.462208e-07 
  6.993000e+03   1.605288e-07 
  6.994000e+03   1.300444e-07 
  6.995000e+03   1.464945e-07 
  6.996000e+03   1.323600e-07 
  6.997000e+03   1.308514e-07 
  6.998000e+03   1.567437e-07 
  6.999000e+03   1.189715e-07 
  7.000000e+03   1.371143e-07 
  7.001000e+03   1.603578e-07 
  7.002000e+03   1.465313e-07 
  7.003000e+03   1.289261e-07 
  7.004000e+03   1.172872e-07 
  7.005000e+03   1.420666e-07 
  7.006000e+03   1.285590e-07 
  7.007000e+03   1.545302e-07 
  7.008000e+03   1.256562e-07 
  7.009000e+03   1.510990e-07 
  7.010000e+03   1.280874e-07 
  7.011000e+03   1.501644e-07 
  7.012000e+03   1.695826e-07 
  7.013000e+03   1.303290e-07 
  7.014000e+03   1.339031e-07 
  7.015000e+03   1.429439e-07 
  7.016000e+03   1.133255e-07 
  7.017000e+03   1.072991e-07 
  7.018000e+03   1.460283e-07 
  7.019000e+03   1.335481e-07 
  7.020000e+03   1.348957e-07 
  7.021000e+03   1.299947e-07 
  7.022000e+03   1.277956e-07 
  7.023000e+03   1.352469e-07 
  7.024000e+03   1.171503e-07 
  7.025000e+03   1.120722e-07 
  7.026000e+03   1.351118e-07 
  7.027000e+03   1.293472e-07 
  7.028000e+03   1.276815e-07 
  7.029000e+03   1.620962e-07 
  7.030000e+03   1.427624e-07 
  7.031000e+03   1.531665e-07 
  7.032000e+03   1.266585e-07 
  7.033000e+03   1.309554e-07 
  7.034000e+03   1.308895e-07 
  7.035000e+03   1.557783e-07 
  7.036000e+03   1.591037e-07 
  7.037000e+03   1.386931e-07 
  7.038000e+03   1.305235e-07 
  7.039000e+03   1.200433e-07 
  7.040000e+03   1.175876e-07 
  7.041000e+03   1.233863e-07 
  7.042000e+03   1.368549e-07 
  7.043000e+03   1.618856e-07 
  7.044000e+03   1.482674e-07 
  7.045000e+03   1.461787e-07 
  7.046000e+03   1.427502e-07 
  7.047000e+03   1.099659e-07 
  7.048000e+03   1.812526e-07 
  7.049000e+03   1.588636e-07 
  7.050000e+03   1.624357e-07 
  7.051000e+03   1.304175e-07 
  7.052000e+03   1.552890e-07 
  7.053000e+03   1.283488e-07 
  7.054000e+03   1.349147e-07 
  7.055000e+03   1.365042e-07 
  7.056000e+03   1.193940e-07 
  7.057000e+03   1.307286e-07 
  7.058000e+03   1.129346e-07 
  7.059000e+03   1.484029e-07 
  7.060000e+03   1.363453e-07 
  7.061000e+03   1.419518e-07 
  7.062000e+03   1.617175e-07 
  7.063000e+03   1.360516e-07 
  7.064000e+03   1.450520e-07 
  7.065000e+03   1.392403e-07 
  7.066000e+03   1.314351e-07 
  7.067000e+03   1.213043e-07 
  7.068000e+03   1.205525e-07 
  7.069000e+03   1.109330e-07 
  7.070000e+03   1.576771e-07 
  7.071000e+03   1.185059e-07 
  7.072000e+03   1.314678e-07 
  7.073000e+03   1.332916e-07 
  7.074000e+03   1.622674e-07 
  7.075000e+03   1.461689e-07 
  7.076000e+03   1.202623e-07 
  7.077000e+03   1.268093e-07 
  7.078000e+03   1.310594e-07 
  7.079000e+03   1.203509e-07 
  7.080000e+03   1.519962e-07 
  7.081000e+03   1.491646e-07 
  7.082000e+03   1.332748e-07 
  7.083000e+03   1.581471e-07 
  7.084000e+03   1.383605e-07 
  7.085000e+03   1.355669e-07 
  7.086000e+03   1.324644e-07 
  7.087000e+03   1.559224e-07 
  7.088000e+03   1.462102e-07 
  7.089000e+03   1.204443e-07 
  7.090000e+03   1.424009e-07 
  7.091000e+03   1.321219e-07 
  7.092000e+03   1.504621e-07 
  7.093000e+03   1.114226e-07 
  7.094000e+03   1.025706e-07 
  7.095000e+03   1.414127e-07 
  7.096000e+03   1.318323e-07 
  7.097000e+03   1.509199e-07 
  7.098000e+03   1.335444e-07 
  7.099000e+03   1.146784e-07 
  7.100000e+03   1.471998e-07 
  7.101000e+03   1.457106e-07 
  7.102000e+03   1.379721e-07 
  7.103000e+03   1.267204e-07 
  7.104000e+03   1.479811e-07 
  7.105000e+03   1.649936e-07 
  7.106000e+03   1.378307e-07 
  7.107000e+03   1.449003e-07 
  7.108000e+03   1.487197e-07 
  7.109000e+03   1.304722e-07 
  7.110000e+03   1.179327e-07 
  7.111000e+03   1.275621e-07 
  7.112000e+03   1.270398e-07 
  7.113000e+03   1.252061e-07 
  7.114000e+03   1.173640e-07 
  7.115000e+03   1.314979e-07 
  7.116000e+03   1.110377e-07 
  7.117000e+03   1.439233e-07 
  7.118000e+03   1.352066e-07 
  7.119000e+03   1.378742e-07 
  7.120000e+03   1.205610e-07 
  7.121000e+03   1.395608e-07 
  7.122000e+03   1.259999e-07 
  7.123000e+03   1.304769e-07 
  7.124000e+03   1.484890e-07 
  7.125000e+03   1.159311e-07 
  7.126000e+03   1.427565e-07 
  7.127000e+03   1.421298e-07 
  7.128000e+03   1.249408e-07 
  7.129000e+03   1.222355e-07 
  7.130000e+03   1.247421e-07 
  7.131000e+03   1.285196e-07 
  7.132000e+03   1.522590e-07 
  7.133000e+03   1.198543e-07 
  7.134000e+03   1.532573e-07 
  7.135000e+03   1.652656e-07 
  7.136000e+03   1.208619e-07 
  7.137000e+03   1.421195e-07 
  7.138000e+03   1.480225e-07 
  7.139000e+03   1.267813e-07 
  7.140000e+03   1.163396e-07 
  7.141000e+03   1.242864e-07 
  7.142000e+03   1.264405e-07 
  7.143000e+03   1.334286e-07 
  7.144000e+03   1.312002e-07 
  7.145000e+03   1.352566e-07 
  7.146000e+03   1.203459e-07 
  7.147000e+03   1.183367e-07 
  7.148000e+03   1.463627e-07 
  7.149000e+03   1.642685e-07 
  7.150000e+03   1.188384e-07 
  7.151000e+03   1.269063e-07 
  7.152000e+03   1.601096e-07 
  7.153000e+03   1.676814e-07 
  7.154000e+03   1.137899e-07 
  7.155000e+03   1.375537e-07 
  7.156000e+03   1.444767e-07 
  7.157000e+03   1.477029e-07 
  7.158000e+03   1.183685e-07 
  7.159000e+03   1.227530e-07 
  7.160000e+03   1.069773e-07 
  7.161000e+03   1.358812e-07 
  7.162000e+03   1.237325e-07 
  7.163000e+03   1.466308e-07 
  7.164000e+03   1.203513e-07 
  7.165000e+03   1.660894e-07 
  7.166000e+03   1.565631e-07 
  7.167000e+03   1.261272e-07 
  7.168000e+03   1.391436e-07 
  7.169000e+03   1.368755e-07 
  7.170000e+03   1.484053e-07 
  7.171000e+03   1.298706e-07 
  7.172000e+03   1.209895e-07 
  7.173000e+03   1.261523e-07 
  7.174000e+03   1.085118e-07 
  7.175000e+03   1.198656e-07 
  7.176000e+03   1.245231e-07 
  7.177000e+03   1.527251e-07 
  7.178000e+03   1.178166e-07 
  7.179000e+03   1.389180e-07 
  7.180000e+03   1.115659e-07 
  7.181000e+03   1.376162e-07 
  7.182000e+03   1.515810e-07 
  7.183000e+03   9.588145e-08 
  7.184000e+03   1.128263e-07 
  7.185000e+03   1.309355e-07 
  7.186000e+03   1.258438e-07 
  7.187000e+03   1.464048e-07 
  7.188000e+03   1.314067e-07 
  7.189000e+03   1.621656e-07 
  7.190000e+03   1.531798e-07 
  7.191000e+03   1.227359e-07 
  7.192000e+03   1.218104e-07 
  7.193000e+03   1.286213e-07 
  7.194000e+03   1.667178e-07 
  7.195000e+03   1.840109e-07 
  7.196000e+03   1.468285e-07 
  7.197000e+03   1.000543e-07 
  7.198000e+03   1.286742e-07 
  7.199000e+03   1.335860e-07 
  7.200000e+03   1.258026e-07 
