Input File: PZ100B.78D
Measure Group: FFT
Measurement: FFT 2
Num of extracted Points: 801
Start Freq: -0 Hz
Span: 800 Hz
FFT Lines:  400 
Window: Uniform
Averaging Mode: RMS
Averaging Type: Linear / Fix Len
Number of Avg:   20
Overload reject: Off

    X[Hz]      Vrms/Hz^(1/... 
  0.000000e+00   4.200910e-04 
  1.000000e+00   6.429214e-05 
  2.000000e+00   4.446190e-05 
  3.000000e+00   3.200279e-05 
  4.000000e+00   2.786677e-05 
  5.000000e+00   2.311815e-05 
  6.000000e+00   1.801099e-05 
  7.000000e+00   1.653614e-05 
  8.000000e+00   1.566681e-05 
  9.000000e+00   1.283921e-05 
  1.000000e+01   1.160447e-05 
  1.100000e+01   1.076743e-05 
  1.200000e+01   1.189780e-05 
  1.300000e+01   8.213861e-06 
  1.400000e+01   7.867334e-06 
  1.500000e+01   9.263623e-06 
  1.600000e+01   8.599180e-06 
  1.700000e+01   7.847573e-06 
  1.800000e+01   7.561105e-06 
  1.900000e+01   9.596643e-06 
  2.000000e+01   7.077960e-06 
  2.100000e+01   6.163294e-06 
  2.200000e+01   6.278325e-06 
  2.300000e+01   6.820388e-06 
  2.400000e+01   6.579262e-06 
  2.500000e+01   5.873125e-06 
  2.600000e+01   5.598285e-06 
  2.700000e+01   5.075378e-06 
  2.800000e+01   6.115939e-06 
  2.900000e+01   5.279069e-06 
  3.000000e+01   5.881683e-06 
  3.100000e+01   5.555418e-06 
  3.200000e+01   5.131538e-06 
  3.300000e+01   4.960914e-06 
  3.400000e+01   5.396218e-06 
  3.500000e+01   3.995855e-06 
  3.600000e+01   5.479547e-06 
  3.700000e+01   5.432109e-06 
  3.800000e+01   3.774161e-06 
  3.900000e+01   4.926614e-06 
  4.000000e+01   4.513764e-06 
  4.100000e+01   5.283772e-06 
  4.200000e+01   3.795320e-06 
  4.300000e+01   4.170563e-06 
  4.400000e+01   5.045217e-06 
  4.500000e+01   3.920716e-06 
  4.600000e+01   4.183973e-06 
  4.700000e+01   4.096336e-06 
  4.800000e+01   4.718927e-06 
  4.900000e+01   3.277180e-06 
  5.000000e+01   3.825982e-06 
  5.100000e+01   3.984464e-06 
  5.200000e+01   5.407756e-06 
  5.300000e+01   4.697120e-06 
  5.400000e+01   3.874393e-06 
  5.500000e+01   3.371598e-06 
  5.600000e+01   3.036715e-06 
  5.700000e+01   4.102586e-06 
  5.800000e+01   3.422443e-06 
  5.900000e+01   3.727911e-06 
  6.000000e+01   6.041886e-06 
  6.100000e+01   3.568773e-06 
  6.200000e+01   3.766546e-06 
  6.300000e+01   2.960086e-06 
  6.400000e+01   3.154956e-06 
  6.500000e+01   2.836201e-06 
  6.600000e+01   2.889791e-06 
  6.700000e+01   3.190789e-06 
  6.800000e+01   3.057977e-06 
  6.900000e+01   3.178478e-06 
  7.000000e+01   3.467362e-06 
  7.100000e+01   3.098785e-06 
  7.200000e+01   2.745275e-06 
  7.300000e+01   2.737029e-06 
  7.400000e+01   2.927749e-06 
  7.500000e+01   2.868391e-06 
  7.600000e+01   3.306978e-06 
  7.700000e+01   2.894736e-06 
  7.800000e+01   3.120209e-06 
  7.900000e+01   3.059729e-06 
  8.000000e+01   2.445886e-06 
  8.100000e+01   3.331169e-06 
  8.200000e+01   3.295640e-06 
  8.300000e+01   3.198737e-06 
  8.400000e+01   2.554514e-06 
  8.500000e+01   3.299678e-06 
  8.600000e+01   2.904739e-06 
  8.700000e+01   2.564575e-06 
  8.800000e+01   2.518464e-06 
  8.900000e+01   3.188732e-06 
  9.000000e+01   2.545388e-06 
  9.100000e+01   2.976180e-06 
  9.200000e+01   3.082230e-06 
  9.300000e+01   2.538741e-06 
  9.400000e+01   2.673611e-06 
  9.500000e+01   2.963986e-06 
  9.600000e+01   3.518880e-06 
  9.700000e+01   3.027914e-06 
  9.800000e+01   2.593844e-06 
  9.900000e+01   2.201237e-06 
  1.000000e+02   3.271771e-06 
  1.010000e+02   2.454811e-06 
  1.020000e+02   3.171961e-06 
  1.030000e+02   2.324329e-06 
  1.040000e+02   2.466914e-06 
  1.050000e+02   2.626013e-06 
  1.060000e+02   2.396198e-06 
  1.070000e+02   2.208208e-06 
  1.080000e+02   2.821759e-06 
  1.090000e+02   2.245794e-06 
  1.100000e+02   3.046775e-06 
  1.110000e+02   2.612859e-06 
  1.120000e+02   2.201004e-06 
  1.130000e+02   2.472152e-06 
  1.140000e+02   2.902083e-06 
  1.150000e+02   2.777487e-06 
  1.160000e+02   2.747371e-06 
  1.170000e+02   2.146250e-06 
  1.180000e+02   3.125454e-06 
  1.190000e+02   2.582985e-06 
  1.200000e+02   3.501458e-06 
  1.210000e+02   3.077768e-06 
  1.220000e+02   2.346660e-06 
  1.230000e+02   2.733556e-06 
  1.240000e+02   2.346576e-06 
  1.250000e+02   2.153809e-06 
  1.260000e+02   2.347710e-06 
  1.270000e+02   2.114912e-06 
  1.280000e+02   2.482607e-06 
  1.290000e+02   2.654320e-06 
  1.300000e+02   2.267606e-06 
  1.310000e+02   2.501160e-06 
  1.320000e+02   2.321963e-06 
  1.330000e+02   2.198854e-06 
  1.340000e+02   2.280153e-06 
  1.350000e+02   2.297900e-06 
  1.360000e+02   2.262344e-06 
  1.370000e+02   1.888428e-06 
  1.380000e+02   2.375976e-06 
  1.390000e+02   2.309052e-06 
  1.400000e+02   2.169052e-06 
  1.410000e+02   2.230100e-06 
  1.420000e+02   2.129829e-06 
  1.430000e+02   2.330302e-06 
  1.440000e+02   2.430718e-06 
  1.450000e+02   2.492978e-06 
  1.460000e+02   2.075244e-06 
  1.470000e+02   2.185639e-06 
  1.480000e+02   2.120981e-06 
  1.490000e+02   2.579322e-06 
  1.500000e+02   2.364752e-06 
  1.510000e+02   1.970153e-06 
  1.520000e+02   2.171108e-06 
  1.530000e+02   1.995998e-06 
  1.540000e+02   2.213033e-06 
  1.550000e+02   1.811487e-06 
  1.560000e+02   2.178861e-06 
  1.570000e+02   1.690727e-06 
  1.580000e+02   2.127271e-06 
  1.590000e+02   2.204066e-06 
  1.600000e+02   1.605093e-06 
  1.610000e+02   2.071853e-06 
  1.620000e+02   1.657182e-06 
  1.630000e+02   1.799480e-06 
  1.640000e+02   1.905606e-06 
  1.650000e+02   1.943750e-06 
  1.660000e+02   1.809767e-06 
  1.670000e+02   1.889567e-06 
  1.680000e+02   1.957270e-06 
  1.690000e+02   1.913677e-06 
  1.700000e+02   2.163623e-06 
  1.710000e+02   1.765487e-06 
  1.720000e+02   2.090137e-06 
  1.730000e+02   1.754216e-06 
  1.740000e+02   2.146353e-06 
  1.750000e+02   1.978323e-06 
  1.760000e+02   2.165875e-06 
  1.770000e+02   2.125844e-06 
  1.780000e+02   2.099632e-06 
  1.790000e+02   2.148186e-06 
  1.800000e+02   9.474562e-06 
  1.810000e+02   2.293680e-06 
  1.820000e+02   1.866919e-06 
  1.830000e+02   1.860456e-06 
  1.840000e+02   2.230970e-06 
  1.850000e+02   2.162215e-06 
  1.860000e+02   1.697647e-06 
  1.870000e+02   1.779548e-06 
  1.880000e+02   1.716306e-06 
  1.890000e+02   2.051097e-06 
  1.900000e+02   1.987054e-06 
  1.910000e+02   2.119807e-06 
  1.920000e+02   1.701588e-06 
  1.930000e+02   2.139285e-06 
  1.940000e+02   1.982685e-06 
  1.950000e+02   1.921605e-06 
  1.960000e+02   2.122302e-06 
  1.970000e+02   1.695975e-06 
  1.980000e+02   1.880321e-06 
  1.990000e+02   1.731203e-06 
  2.000000e+02   1.680324e-06 
  2.010000e+02   1.508980e-06 
  2.020000e+02   1.770516e-06 
  2.030000e+02   2.223623e-06 
  2.040000e+02   1.916662e-06 
  2.050000e+02   2.357220e-06 
  2.060000e+02   2.172579e-06 
  2.070000e+02   1.903222e-06 
  2.080000e+02   1.630911e-06 
  2.090000e+02   1.923317e-06 
  2.100000e+02   2.000587e-06 
  2.110000e+02   1.981498e-06 
  2.120000e+02   1.720859e-06 
  2.130000e+02   1.536394e-06 
  2.140000e+02   1.847529e-06 
  2.150000e+02   1.756953e-06 
  2.160000e+02   1.599698e-06 
  2.170000e+02   1.873511e-06 
  2.180000e+02   1.362716e-06 
  2.190000e+02   1.984963e-06 
  2.200000e+02   2.135330e-06 
  2.210000e+02   1.733855e-06 
  2.220000e+02   2.226525e-06 
  2.230000e+02   1.729854e-06 
  2.240000e+02   1.791779e-06 
  2.250000e+02   1.875773e-06 
  2.260000e+02   1.349980e-06 
  2.270000e+02   1.841975e-06 
  2.280000e+02   1.562100e-06 
  2.290000e+02   1.795066e-06 
  2.300000e+02   1.768053e-06 
  2.310000e+02   2.019905e-06 
  2.320000e+02   1.477042e-06 
  2.330000e+02   1.572498e-06 
  2.340000e+02   1.797542e-06 
  2.350000e+02   1.915650e-06 
  2.360000e+02   1.587283e-06 
  2.370000e+02   1.871699e-06 
  2.380000e+02   1.714787e-06 
  2.390000e+02   1.605798e-06 
  2.400000e+02   2.007322e-06 
  2.410000e+02   1.612200e-06 
  2.420000e+02   1.529824e-06 
  2.430000e+02   1.707316e-06 
  2.440000e+02   1.988514e-06 
  2.450000e+02   1.641405e-06 
  2.460000e+02   1.687233e-06 
  2.470000e+02   1.791221e-06 
  2.480000e+02   1.946793e-06 
  2.490000e+02   1.697406e-06 
  2.500000e+02   1.501918e-06 
  2.510000e+02   1.546623e-06 
  2.520000e+02   1.498368e-06 
  2.530000e+02   1.587994e-06 
  2.540000e+02   1.745264e-06 
  2.550000e+02   1.892868e-06 
  2.560000e+02   1.636784e-06 
  2.570000e+02   1.506614e-06 
  2.580000e+02   1.867987e-06 
  2.590000e+02   1.464439e-06 
  2.600000e+02   1.625769e-06 
  2.610000e+02   1.383407e-06 
  2.620000e+02   1.463817e-06 
  2.630000e+02   1.506246e-06 
  2.640000e+02   1.476996e-06 
  2.650000e+02   1.398259e-06 
  2.660000e+02   1.504207e-06 
  2.670000e+02   1.367109e-06 
  2.680000e+02   1.759362e-06 
  2.690000e+02   1.575079e-06 
  2.700000e+02   1.592561e-06 
  2.710000e+02   1.828645e-06 
  2.720000e+02   1.573311e-06 
  2.730000e+02   1.566349e-06 
  2.740000e+02   1.537206e-06 
  2.750000e+02   1.304131e-06 
  2.760000e+02   1.529141e-06 
  2.770000e+02   1.440988e-06 
  2.780000e+02   1.782059e-06 
  2.790000e+02   1.781476e-06 
  2.800000e+02   1.408317e-06 
  2.810000e+02   1.553585e-06 
  2.820000e+02   1.237461e-06 
  2.830000e+02   1.664569e-06 
  2.840000e+02   1.433696e-06 
  2.850000e+02   1.440871e-06 
  2.860000e+02   1.587590e-06 
  2.870000e+02   1.581421e-06 
  2.880000e+02   1.620404e-06 
  2.890000e+02   1.620501e-06 
  2.900000e+02   1.465872e-06 
  2.910000e+02   1.487755e-06 
  2.920000e+02   1.336329e-06 
  2.930000e+02   1.854297e-06 
  2.940000e+02   1.317966e-06 
  2.950000e+02   1.104649e-06 
  2.960000e+02   1.352127e-06 
  2.970000e+02   1.620720e-06 
  2.980000e+02   1.420863e-06 
  2.990000e+02   1.390258e-06 
  3.000000e+02   4.766939e-06 
  3.010000e+02   1.395145e-06 
  3.020000e+02   1.455139e-06 
  3.030000e+02   1.671528e-06 
  3.040000e+02   1.736148e-06 
  3.050000e+02   1.387236e-06 
  3.060000e+02   1.336697e-06 
  3.070000e+02   1.348373e-06 
  3.080000e+02   1.327002e-06 
  3.090000e+02   1.252975e-06 
  3.100000e+02   1.486310e-06 
  3.110000e+02   1.660580e-06 
  3.120000e+02   1.595753e-06 
  3.130000e+02   1.375694e-06 
  3.140000e+02   1.304409e-06 
  3.150000e+02   1.551117e-06 
  3.160000e+02   1.095854e-06 
  3.170000e+02   1.325509e-06 
  3.180000e+02   1.025199e-06 
  3.190000e+02   1.798848e-06 
  3.200000e+02   1.077238e-06 
  3.210000e+02   1.284543e-06 
  3.220000e+02   1.462902e-06 
  3.230000e+02   1.359010e-06 
  3.240000e+02   1.561843e-06 
  3.250000e+02   1.265687e-06 
  3.260000e+02   1.367432e-06 
  3.270000e+02   1.244681e-06 
  3.280000e+02   1.456733e-06 
  3.290000e+02   1.081722e-06 
  3.300000e+02   1.579997e-06 
  3.310000e+02   1.253149e-06 
  3.320000e+02   1.410242e-06 
  3.330000e+02   1.387215e-06 
  3.340000e+02   1.476253e-06 
  3.350000e+02   1.199185e-06 
  3.360000e+02   1.629935e-06 
  3.370000e+02   1.077308e-06 
  3.380000e+02   1.641969e-06 
  3.390000e+02   1.327100e-06 
  3.400000e+02   1.446850e-06 
  3.410000e+02   1.237136e-06 
  3.420000e+02   1.555027e-06 
  3.430000e+02   1.514368e-06 
  3.440000e+02   1.390038e-06 
  3.450000e+02   1.134378e-06 
  3.460000e+02   1.322867e-06 
  3.470000e+02   1.054618e-06 
  3.480000e+02   1.528896e-06 
  3.490000e+02   1.254465e-06 
  3.500000e+02   1.512106e-06 
  3.510000e+02   1.356653e-06 
  3.520000e+02   1.328497e-06 
  3.530000e+02   1.304202e-06 
  3.540000e+02   1.183822e-06 
  3.550000e+02   1.247834e-06 
  3.560000e+02   1.243266e-06 
  3.570000e+02   1.030905e-06 
  3.580000e+02   1.288870e-06 
  3.590000e+02   1.277963e-06 
  3.600000e+02   1.330964e-06 
  3.610000e+02   1.315575e-06 
  3.620000e+02   1.396854e-06 
  3.630000e+02   1.340437e-06 
  3.640000e+02   1.412674e-06 
  3.650000e+02   1.574720e-06 
  3.660000e+02   1.252205e-06 
  3.670000e+02   1.118329e-06 
  3.680000e+02   1.481305e-06 
  3.690000e+02   1.525407e-06 
  3.700000e+02   1.325342e-06 
  3.710000e+02   1.235491e-06 
  3.720000e+02   1.290513e-06 
  3.730000e+02   1.137087e-06 
  3.740000e+02   9.923118e-07 
  3.750000e+02   1.375037e-06 
  3.760000e+02   1.303884e-06 
  3.770000e+02   1.240254e-06 
  3.780000e+02   1.383396e-06 
  3.790000e+02   1.568035e-06 
  3.800000e+02   9.863288e-07 
  3.810000e+02   1.318501e-06 
  3.820000e+02   1.240854e-06 
  3.830000e+02   1.085594e-06 
  3.840000e+02   1.258486e-06 
  3.850000e+02   1.450724e-06 
  3.860000e+02   1.374140e-06 
  3.870000e+02   1.265930e-06 
  3.880000e+02   1.284460e-06 
  3.890000e+02   1.344030e-06 
  3.900000e+02   1.322698e-06 
  3.910000e+02   1.422420e-06 
  3.920000e+02   1.220453e-06 
  3.930000e+02   1.198527e-06 
  3.940000e+02   1.413856e-06 
  3.950000e+02   1.373319e-06 
  3.960000e+02   1.227389e-06 
  3.970000e+02   1.387572e-06 
  3.980000e+02   1.516358e-06 
  3.990000e+02   1.167763e-06 
  4.000000e+02   1.121244e-06 
  4.010000e+02   1.212432e-06 
  4.020000e+02   1.550968e-06 
  4.030000e+02   1.346596e-06 
  4.040000e+02   1.095140e-06 
  4.050000e+02   1.250757e-06 
  4.060000e+02   1.157405e-06 
  4.070000e+02   1.578670e-06 
  4.080000e+02   1.367997e-06 
  4.090000e+02   1.385992e-06 
  4.100000e+02   1.602928e-06 
  4.110000e+02   1.432203e-06 
  4.120000e+02   9.964085e-07 
  4.130000e+02   1.542568e-06 
  4.140000e+02   1.251547e-06 
  4.150000e+02   1.317783e-06 
  4.160000e+02   1.231091e-06 
  4.170000e+02   1.333977e-06 
  4.180000e+02   1.320637e-06 
  4.190000e+02   1.369562e-06 
  4.200000e+02   1.464698e-06 
  4.210000e+02   1.160637e-06 
  4.220000e+02   1.052176e-06 
  4.230000e+02   1.018348e-06 
  4.240000e+02   1.335746e-06 
  4.250000e+02   1.215379e-06 
  4.260000e+02   1.601342e-06 
  4.270000e+02   1.456207e-06 
  4.280000e+02   1.461272e-06 
  4.290000e+02   1.286553e-06 
  4.300000e+02   9.381959e-07 
  4.310000e+02   1.254859e-06 
  4.320000e+02   9.680213e-07 
  4.330000e+02   1.205509e-06 
  4.340000e+02   1.333593e-06 
  4.350000e+02   1.398982e-06 
  4.360000e+02   1.038738e-06 
  4.370000e+02   1.044761e-06 
  4.380000e+02   1.206717e-06 
  4.390000e+02   9.505107e-07 
  4.400000e+02   1.240217e-06 
  4.410000e+02   1.486391e-06 
  4.420000e+02   1.242863e-06 
  4.430000e+02   1.227749e-06 
  4.440000e+02   1.379349e-06 
  4.450000e+02   1.310809e-06 
  4.460000e+02   9.978995e-07 
  4.470000e+02   1.085404e-06 
  4.480000e+02   1.286833e-06 
  4.490000e+02   1.039748e-06 
  4.500000e+02   1.246855e-06 
  4.510000e+02   1.163775e-06 
  4.520000e+02   1.120119e-06 
  4.530000e+02   1.640529e-06 
  4.540000e+02   1.292908e-06 
  4.550000e+02   1.039224e-06 
  4.560000e+02   1.019779e-06 
  4.570000e+02   1.080125e-06 
  4.580000e+02   1.241283e-06 
  4.590000e+02   1.017076e-06 
  4.600000e+02   1.186413e-06 
  4.610000e+02   1.054847e-06 
  4.620000e+02   1.431357e-06 
  4.630000e+02   1.037019e-06 
  4.640000e+02   1.117291e-06 
  4.650000e+02   1.139428e-06 
  4.660000e+02   1.174908e-06 
  4.670000e+02   1.103257e-06 
  4.680000e+02   1.241520e-06 
  4.690000e+02   1.332841e-06 
  4.700000e+02   1.086673e-06 
  4.710000e+02   1.096480e-06 
  4.720000e+02   1.016118e-06 
  4.730000e+02   1.049193e-06 
  4.740000e+02   1.274550e-06 
  4.750000e+02   1.131907e-06 
  4.760000e+02   1.116098e-06 
  4.770000e+02   1.237527e-06 
  4.780000e+02   1.227251e-06 
  4.790000e+02   1.316016e-06 
  4.800000e+02   1.619254e-06 
  4.810000e+02   1.039906e-06 
  4.820000e+02   1.115582e-06 
  4.830000e+02   1.046478e-06 
  4.840000e+02   9.809429e-07 
  4.850000e+02   9.138745e-07 
  4.860000e+02   1.123598e-06 
  4.870000e+02   1.318292e-06 
  4.880000e+02   1.046295e-06 
  4.890000e+02   1.146819e-06 
  4.900000e+02   1.195702e-06 
  4.910000e+02   1.218177e-06 
  4.920000e+02   8.667862e-07 
  4.930000e+02   1.314258e-06 
  4.940000e+02   9.811622e-07 
  4.950000e+02   1.190673e-06 
  4.960000e+02   9.474270e-07 
  4.970000e+02   1.088788e-06 
  4.980000e+02   1.144609e-06 
  4.990000e+02   1.210738e-06 
  5.000000e+02   1.095262e-06 
  5.010000e+02   1.090236e-06 
  5.020000e+02   1.059586e-06 
  5.030000e+02   9.867579e-07 
  5.040000e+02   1.074634e-06 
  5.050000e+02   1.081644e-06 
  5.060000e+02   1.112692e-06 
  5.070000e+02   1.005786e-06 
  5.080000e+02   1.027265e-06 
  5.090000e+02   8.940231e-07 
  5.100000e+02   1.123570e-06 
  5.110000e+02   1.303867e-06 
  5.120000e+02   9.330796e-07 
  5.130000e+02   1.241301e-06 
  5.140000e+02   9.920252e-07 
  5.150000e+02   1.152544e-06 
  5.160000e+02   1.215117e-06 
  5.170000e+02   1.066686e-06 
  5.180000e+02   1.130921e-06 
  5.190000e+02   1.082572e-06 
  5.200000e+02   9.692756e-07 
  5.210000e+02   7.478629e-07 
  5.220000e+02   1.014378e-06 
  5.230000e+02   1.084928e-06 
  5.240000e+02   1.061633e-06 
  5.250000e+02   1.027933e-06 
  5.260000e+02   1.041248e-06 
  5.270000e+02   9.509584e-07 
  5.280000e+02   1.124809e-06 
  5.290000e+02   1.291934e-06 
  5.300000e+02   1.262769e-06 
  5.310000e+02   1.155799e-06 
  5.320000e+02   1.074745e-06 
  5.330000e+02   1.205611e-06 
  5.340000e+02   1.032619e-06 
  5.350000e+02   8.312152e-07 
  5.360000e+02   1.205035e-06 
  5.370000e+02   9.367492e-07 
  5.380000e+02   1.056457e-06 
  5.390000e+02   9.078336e-07 
  5.400000e+02   2.314635e-06 
  5.410000e+02   9.428990e-07 
  5.420000e+02   1.024720e-06 
  5.430000e+02   1.128293e-06 
  5.440000e+02   1.061684e-06 
  5.450000e+02   8.670172e-07 
  5.460000e+02   9.995296e-07 
  5.470000e+02   7.917498e-07 
  5.480000e+02   9.622477e-07 
  5.490000e+02   1.279938e-06 
  5.500000e+02   1.048989e-06 
  5.510000e+02   1.024675e-06 
  5.520000e+02   9.635313e-07 
  5.530000e+02   1.071258e-06 
  5.540000e+02   1.015603e-06 
  5.550000e+02   1.009181e-06 
  5.560000e+02   8.822612e-07 
  5.570000e+02   1.155124e-06 
  5.580000e+02   1.062328e-06 
  5.590000e+02   9.047686e-07 
  5.600000e+02   1.023971e-06 
  5.610000e+02   9.697112e-07 
  5.620000e+02   1.018172e-06 
  5.630000e+02   8.934502e-07 
  5.640000e+02   9.620683e-07 
  5.650000e+02   1.136422e-06 
  5.660000e+02   9.048713e-07 
  5.670000e+02   1.006528e-06 
  5.680000e+02   1.136891e-06 
  5.690000e+02   1.212387e-06 
  5.700000e+02   9.112595e-07 
  5.710000e+02   8.887855e-07 
  5.720000e+02   1.161898e-06 
  5.730000e+02   1.024950e-06 
  5.740000e+02   9.342980e-07 
  5.750000e+02   1.206345e-06 
  5.760000e+02   1.019866e-06 
  5.770000e+02   1.068591e-06 
  5.780000e+02   1.090542e-06 
  5.790000e+02   8.883396e-07 
  5.800000e+02   1.025405e-06 
  5.810000e+02   9.440116e-07 
  5.820000e+02   9.465234e-07 
  5.830000e+02   1.042081e-06 
  5.840000e+02   1.112544e-06 
  5.850000e+02   1.175851e-06 
  5.860000e+02   1.041177e-06 
  5.870000e+02   1.097658e-06 
  5.880000e+02   7.047755e-07 
  5.890000e+02   8.583933e-07 
  5.900000e+02   9.544279e-07 
  5.910000e+02   1.022906e-06 
  5.920000e+02   1.002295e-06 
  5.930000e+02   1.263502e-06 
  5.940000e+02   8.513023e-07 
  5.950000e+02   1.004947e-06 
  5.960000e+02   1.054536e-06 
  5.970000e+02   9.397042e-07 
  5.980000e+02   8.453953e-07 
  5.990000e+02   7.862698e-07 
  6.000000e+02   1.141540e-06 
  6.010000e+02   1.022126e-06 
  6.020000e+02   1.153976e-06 
  6.030000e+02   9.373759e-07 
  6.040000e+02   1.121422e-06 
  6.050000e+02   1.017060e-06 
  6.060000e+02   8.612521e-07 
  6.070000e+02   9.665742e-07 
  6.080000e+02   1.202460e-06 
  6.090000e+02   1.116116e-06 
  6.100000e+02   1.166411e-06 
  6.110000e+02   1.020755e-06 
  6.120000e+02   1.190670e-06 
  6.130000e+02   1.242128e-06 
  6.140000e+02   1.037308e-06 
  6.150000e+02   8.341906e-07 
  6.160000e+02   1.371425e-06 
  6.170000e+02   9.272075e-07 
  6.180000e+02   1.148215e-06 
  6.190000e+02   1.227540e-06 
  6.200000e+02   1.022727e-06 
  6.210000e+02   8.820914e-07 
  6.220000e+02   1.038759e-06 
  6.230000e+02   9.747612e-07 
  6.240000e+02   1.103675e-06 
  6.250000e+02   8.864638e-07 
  6.260000e+02   1.006904e-06 
  6.270000e+02   9.492747e-07 
  6.280000e+02   8.007609e-07 
  6.290000e+02   8.932056e-07 
  6.300000e+02   9.799462e-07 
  6.310000e+02   9.319748e-07 
  6.320000e+02   1.013842e-06 
  6.330000e+02   8.931380e-07 
  6.340000e+02   9.403657e-07 
  6.350000e+02   8.874147e-07 
  6.360000e+02   8.974022e-07 
  6.370000e+02   1.094363e-06 
  6.380000e+02   1.103503e-06 
  6.390000e+02   9.327208e-07 
  6.400000e+02   1.138682e-06 
  6.410000e+02   9.887344e-07 
  6.420000e+02   9.739945e-07 
  6.430000e+02   1.020891e-06 
  6.440000e+02   9.905913e-07 
  6.450000e+02   9.940991e-07 
  6.460000e+02   9.474614e-07 
  6.470000e+02   1.268026e-06 
  6.480000e+02   7.877533e-07 
  6.490000e+02   9.146034e-07 
  6.500000e+02   8.250959e-07 
  6.510000e+02   8.161522e-07 
  6.520000e+02   1.098098e-06 
  6.530000e+02   9.741540e-07 
  6.540000e+02   7.916002e-07 
  6.550000e+02   8.673166e-07 
  6.560000e+02   1.074305e-06 
  6.570000e+02   1.117939e-06 
  6.580000e+02   9.018768e-07 
  6.590000e+02   9.495184e-07 
  6.600000e+02   9.980890e-07 
  6.610000e+02   6.841453e-07 
  6.620000e+02   9.221813e-07 
  6.630000e+02   1.078594e-06 
  6.640000e+02   9.789053e-07 
  6.650000e+02   1.108523e-06 
  6.660000e+02   8.834707e-07 
  6.670000e+02   8.691922e-07 
  6.680000e+02   9.252268e-07 
  6.690000e+02   8.521368e-07 
  6.700000e+02   9.681453e-07 
  6.710000e+02   1.099324e-06 
  6.720000e+02   9.888939e-07 
  6.730000e+02   1.037816e-06 
  6.740000e+02   1.201726e-06 
  6.750000e+02   8.683361e-07 
  6.760000e+02   1.041333e-06 
  6.770000e+02   6.335221e-07 
  6.780000e+02   1.011488e-06 
  6.790000e+02   9.679253e-07 
  6.800000e+02   9.571319e-07 
  6.810000e+02   8.313545e-07 
  6.820000e+02   9.630642e-07 
  6.830000e+02   8.205129e-07 
  6.840000e+02   8.178228e-07 
  6.850000e+02   7.226817e-07 
  6.860000e+02   1.003026e-06 
  6.870000e+02   8.774591e-07 
  6.880000e+02   8.662586e-07 
  6.890000e+02   8.893960e-07 
  6.900000e+02   8.610854e-07 
  6.910000e+02   8.880397e-07 
  6.920000e+02   9.110836e-07 
  6.930000e+02   9.575365e-07 
  6.940000e+02   9.608788e-07 
  6.950000e+02   1.074700e-06 
  6.960000e+02   8.256890e-07 
  6.970000e+02   8.231338e-07 
  6.980000e+02   8.231997e-07 
  6.990000e+02   8.575730e-07 
  7.000000e+02   8.588485e-07 
  7.010000e+02   1.041198e-06 
  7.020000e+02   7.106537e-07 
  7.030000e+02   9.789783e-07 
  7.040000e+02   9.991699e-07 
  7.050000e+02   8.813619e-07 
  7.060000e+02   8.678925e-07 
  7.070000e+02   8.795379e-07 
  7.080000e+02   8.019131e-07 
  7.090000e+02   8.028735e-07 
  7.100000e+02   9.838212e-07 
  7.110000e+02   8.942968e-07 
  7.120000e+02   7.235425e-07 
  7.130000e+02   9.653884e-07 
  7.140000e+02   7.512027e-07 
  7.150000e+02   7.936609e-07 
  7.160000e+02   8.806762e-07 
  7.170000e+02   9.118766e-07 
  7.180000e+02   1.165331e-06 
  7.190000e+02   8.897460e-07 
  7.200000e+02   8.106989e-07 
  7.210000e+02   8.333070e-07 
  7.220000e+02   8.398688e-07 
  7.230000e+02   1.024416e-06 
  7.240000e+02   8.238330e-07 
  7.250000e+02   7.059377e-07 
  7.260000e+02   8.527039e-07 
  7.270000e+02   9.822381e-07 
  7.280000e+02   9.444822e-07 
  7.290000e+02   7.502666e-07 
  7.300000e+02   8.793062e-07 
  7.310000e+02   1.057791e-06 
  7.320000e+02   7.220387e-07 
  7.330000e+02   9.128184e-07 
  7.340000e+02   8.481388e-07 
  7.350000e+02   8.565038e-07 
  7.360000e+02   7.415999e-07 
  7.370000e+02   8.925820e-07 
  7.380000e+02   9.251261e-07 
  7.390000e+02   7.119211e-07 
  7.400000e+02   1.023934e-06 
  7.410000e+02   7.003669e-07 
  7.420000e+02   9.339805e-07 
  7.430000e+02   1.036118e-06 
  7.440000e+02   9.453682e-07 
  7.450000e+02   8.541664e-07 
  7.460000e+02   9.452787e-07 
  7.470000e+02   6.848117e-07 
  7.480000e+02   9.273393e-07 
  7.490000e+02   8.372604e-07 
  7.500000e+02   1.003917e-06 
  7.510000e+02   7.870791e-07 
  7.520000e+02   7.326836e-07 
  7.530000e+02   8.409111e-07 
  7.540000e+02   8.763693e-07 
  7.550000e+02   9.072242e-07 
  7.560000e+02   8.654707e-07 
  7.570000e+02   9.300703e-07 
  7.580000e+02   9.003294e-07 
  7.590000e+02   5.785473e-07 
  7.600000e+02   8.910869e-07 
  7.610000e+02   8.258506e-07 
  7.620000e+02   7.949002e-07 
  7.630000e+02   9.361366e-07 
  7.640000e+02   8.953791e-07 
  7.650000e+02   8.270906e-07 
  7.660000e+02   8.767587e-07 
  7.670000e+02   7.239391e-07 
  7.680000e+02   9.180525e-07 
  7.690000e+02   8.158671e-07 
  7.700000e+02   9.986849e-07 
  7.710000e+02   8.669530e-07 
  7.720000e+02   7.122414e-07 
  7.730000e+02   8.009789e-07 
  7.740000e+02   1.120039e-06 
  7.750000e+02   9.635826e-07 
  7.760000e+02   8.287258e-07 
  7.770000e+02   7.468930e-07 
  7.780000e+02   8.260005e-07 
  7.790000e+02   7.680769e-07 
  7.800000e+02   1.398835e-06 
  7.810000e+02   1.086311e-06 
  7.820000e+02   8.771656e-07 
  7.830000e+02   1.049172e-06 
  7.840000e+02   8.286426e-07 
  7.850000e+02   6.863644e-07 
  7.860000e+02   8.850178e-07 
  7.870000e+02   8.403148e-07 
  7.880000e+02   8.008069e-07 
  7.890000e+02   8.460437e-07 
  7.900000e+02   7.532460e-07 
  7.910000e+02   8.963688e-07 
  7.920000e+02   8.277846e-07 
  7.930000e+02   8.903111e-07 
  7.940000e+02   6.393499e-07 
  7.950000e+02   9.222288e-07 
  7.960000e+02   9.982959e-07 
  7.970000e+02   9.536457e-07 
  7.980000e+02   9.520533e-07 
  7.990000e+02   9.059837e-07 
  8.000000e+02   8.661194e-07 
